SpectraSuite Data File
++++++++++++++++++++++++++++++++++++
Date: Fri Nov 20 23:22:08 GMT 2020
User: Jason
Dark Spectrum Present: No
Reference Spectrum Present: No
Number of Sampled Component Spectra: 1
Spectrometers: USB4C01509
Integration Time (usec): 1000000 (USB4C01509)
Spectra Averaged: 10 (USB4C01509)
Boxcar Smoothing: 0 (USB4C01509)
Correct for Electrical Dark: No (USB4C01509)
Strobe/Lamp Enabled: No (USB4C01509)
Correct for Detector Non-linearity: No (USB4C01509)
Correct for Stray Light: No (USB4C01509)
Number of Pixels in Processed Spectrum: 3648
>>>>>Begin Processed Spectral Data<<<<<
179.08	1183.73
179.29	1183.73
179.50	1183.73
179.72	1212.19
179.93	1206.25
180.15	2485.01
180.36	2090.77
180.58	3450.01
180.79	3335.32
181.00	2008.44
181.22	1998.20
181.43	3359.28
181.65	3635.96
181.86	2224.30
182.08	1769.04
182.29	3621.42
182.50	3160.02
182.72	1892.12
182.93	2360.90
183.15	3322.83
183.36	3572.89
183.57	1841.53
183.79	2140.95
184.00	3190.94
184.22	3408.23
184.43	2018.89
184.65	2168.39
184.86	3186.23
185.07	3219.61
185.29	1797.09
185.50	1959.29
185.72	3427.89
185.93	3400.65
186.14	2016.43
186.36	1963.39
186.57	3023.42
186.79	3923.91
187.00	2074.18
187.21	2184.98
187.43	3587.43
187.64	3298.87
187.86	1957.24
188.07	2383.22
188.28	3117.62
188.50	3701.50
188.71	2297.41
188.93	1962.77
189.14	2944.98
189.35	2854.46
189.57	1968.30
189.78	1990.01
190.00	3045.53
190.21	3314.64
190.42	1921.20
190.64	1824.74
190.85	3319.14
191.07	3524.96
191.28	1903.38
191.49	2170.44
191.71	3224.94
191.92	3343.51
192.14	1847.68
192.35	2266.90
192.56	3257.70
192.78	3445.71
192.99	1934.10
193.20	2285.12
193.42	3436.70
193.63	3466.80
193.85	2204.43
194.06	1945.78
194.27	2939.86
194.49	3675.69
194.70	2140.54
194.91	1966.66
195.13	3062.33
195.34	3132.78
195.56	1995.54
195.77	2073.57
195.98	3493.02
196.20	3276.14
196.41	2035.48
196.62	2109.82
196.84	2925.32
197.05	3300.51
197.27	1905.02
197.48	2102.24
197.69	2822.10
197.91	3032.02
198.12	1991.65
198.33	1719.68
198.55	3897.69
198.76	3525.78
198.97	1883.11
199.19	1946.39
199.40	3004.17
199.61	3480.32
199.83	1974.45
200.04	1893.14
200.26	3056.59
200.47	3587.02
200.68	1941.88
200.90	1933.69
201.11	3430.35
201.32	3561.83
201.54	1744.66
201.75	2020.94
201.96	2853.03
202.18	2919.17
202.39	2240.68
202.60	1950.08
202.82	2726.05
203.03	3173.33
203.24	2071.52
203.46	2233.31
203.67	3168.21
203.88	3494.86
204.10	1998.61
204.31	1874.30
204.52	3447.96
204.74	3464.34
204.95	2047.76
205.16	2101.63
205.38	3405.36
205.59	3681.84
205.80	1944.75
206.02	1842.56
206.23	3829.50
206.44	3165.75
206.66	2022.57
206.87	1945.37
207.08	3108.20
207.30	3737.54
207.51	2143.61
207.72	2239.45
207.94	3276.34
208.15	3494.65
208.36	2094.66
208.58	2069.47
208.79	3305.83
209.00	3517.59
209.22	2031.79
209.43	2045.10
209.64	3169.64
209.86	3088.75
210.07	2071.11
210.28	1885.56
210.50	3209.58
210.71	3672.83
210.92	2022.98
211.13	1955.40
211.35	2745.92
211.56	3336.55
211.77	2128.66
211.99	1919.36
212.20	3006.01
212.41	3045.94
212.63	1858.74
212.84	2075.00
213.05	3721.77
213.27	3514.11
213.48	1890.68
213.69	2043.67
213.90	2379.74
214.12	3272.04
214.33	1888.84
214.54	2144.22
214.76	2917.74
214.97	3534.38
215.18	1833.34
215.40	2548.70
215.61	3405.98
215.82	3411.30
216.03	1841.33
216.25	2044.49
216.46	2862.86
216.67	3656.65
216.89	1874.10
217.10	1883.72
217.31	2851.39
217.52	3219.61
217.74	1981.61
217.95	2024.01
218.16	2911.39
218.38	3610.98
218.59	1859.35
218.80	1973.42
219.01	3155.92
219.23	3585.79
219.44	1840.30
219.65	1996.77
219.87	2541.32
220.08	3363.17
220.29	1903.59
220.50	2119.24
220.72	3456.15
220.93	3200.98
221.14	1944.14
221.35	2096.51
221.57	2936.58
221.78	3659.11
221.99	1930.82
222.21	1865.29
222.42	3065.19
222.63	3523.94
222.84	1921.61
223.06	2162.45
223.27	3240.09
223.48	4122.77
223.69	1799.55
223.91	2091.80
224.12	3124.18
224.33	3638.22
224.54	2205.46
224.76	2004.76
224.97	3188.89
225.18	3364.81
225.39	2065.99
225.61	2024.21
225.82	3216.54
226.03	3687.78
226.24	1835.59
226.46	2248.67
226.67	2528.01
226.88	3285.97
227.09	2118.01
227.31	2058.62
227.52	3262.41
227.73	3506.12
227.94	2017.45
228.16	2048.58
228.37	3016.86
228.58	3552.20
228.79	2058.82
229.01	2036.91
229.22	3090.59
229.43	3365.84
229.64	2235.77
229.86	2091.80
230.07	3299.89
230.28	3788.74
230.49	2155.08
230.71	1955.81
230.92	3250.74
231.13	3791.20
231.34	1980.39
231.55	2093.02
231.77	2790.15
231.98	3571.04
232.19	1889.46
232.40	1939.43
232.62	2807.36
232.83	3097.76
233.04	2129.27
233.25	2131.94
233.46	2903.20
233.68	3490.56
233.89	2313.80
234.10	2165.73
234.31	3128.68
234.53	3733.24
234.74	1944.14
234.95	2098.35
235.16	2970.99
235.37	3491.17
235.59	1737.50
235.80	2157.74
236.01	2765.58
236.22	3339.01
236.44	2062.92
236.65	1843.17
236.86	2810.22
237.07	3449.39
237.28	1959.09
237.50	1974.86
237.71	2667.48
237.92	4438.15
238.13	1872.25
238.34	2133.37
238.56	2594.16
238.77	3660.33
238.98	1917.51
239.19	1949.46
239.40	3130.93
239.62	3948.28
239.83	2162.45
240.04	2062.92
240.25	3077.07
240.46	3262.21
240.68	1847.47
240.89	1883.11
241.10	3295.18
241.31	3300.71
241.52	1809.99
241.73	1836.62
241.95	3206.91
242.16	3739.59
242.37	1907.68
242.58	2043.87
242.79	3076.25
243.01	3263.64
243.22	2107.36
243.43	1761.87
243.64	3148.75
243.85	3547.08
244.06	1949.87
244.28	1937.79
244.49	3293.13
244.70	3830.52
244.91	2013.15
245.12	2008.03
245.34	3075.64
245.55	3319.14
245.76	1868.16
245.97	1888.23
246.18	3183.36
246.39	3262.21
246.61	2033.43
246.82	2040.19
247.03	3055.98
247.24	3182.95
247.45	1927.14
247.66	1998.82
247.88	2638.60
248.09	3313.00
248.30	1864.88
248.51	1811.63
248.72	3116.19
248.93	3238.04
249.15	1915.26
249.36	2336.53
249.57	3291.29
249.78	3457.38
249.99	2020.12
250.20	1890.68
250.41	3064.99
250.63	3309.52
250.84	1757.98
251.05	1987.55
251.26	2980.00
251.47	3116.60
251.68	2163.88
251.89	2197.68
252.11	2509.17
252.32	3129.91
252.53	1871.64
252.74	2003.94
252.95	3364.61
253.16	2716.63
253.37	1909.94
253.59	2011.51
253.80	3292.11
254.01	3328.36
254.22	1899.70
254.43	2319.94
254.64	3070.72
254.85	3416.22
255.07	1901.13
255.28	1907.89
255.49	2867.77
255.70	3548.72
255.91	1872.25
256.12	1863.04
256.33	3218.79
256.54	3626.13
256.76	1863.45
256.97	1897.85
257.18	2921.63
257.39	3266.71
257.60	2178.42
257.81	1948.44
258.02	3261.19
258.23	3536.64
258.45	2200.13
258.66	1947.62
258.87	3687.37
259.08	3593.78
259.29	1934.51
259.50	1976.70
259.71	3383.65
259.92	3733.24
260.13	1850.34
260.35	1961.75
260.56	3017.68
260.77	3608.32
260.98	1915.47
261.19	1988.17
261.40	2929.41
261.61	2691.65
261.82	1819.83
262.03	1940.66
262.25	3192.37
262.46	3570.84
262.67	2126.20
262.88	2040.60
263.09	3231.49
263.30	2955.83
263.51	1759.00
263.72	2112.07
263.93	3435.26
264.14	3756.79
264.36	1892.94
264.57	2130.71
264.78	3604.83
264.99	3418.06
265.20	1922.84
265.41	2230.24
265.62	2874.12
265.83	3646.20
266.04	2094.87
266.25	1933.69
266.46	3476.63
266.67	3349.86
266.89	1730.33
267.10	1887.82
267.31	3299.28
267.52	3189.92
267.73	2024.62
267.94	2022.98
268.15	3046.35
268.36	3555.07
268.57	1832.52
268.78	1956.01
268.99	2868.79
269.20	2936.99
269.41	1927.34
269.63	1856.48
269.84	2895.83
270.05	3563.47
270.26	1962.98
270.47	1951.92
270.68	3260.16
270.89	3626.75
271.10	1881.88
271.31	1983.25
271.52	2935.15
271.73	3293.54
271.94	1926.93
272.15	1967.28
272.36	2847.50
272.57	3650.91
272.78	2126.41
273.00	1930.42
273.21	2930.44
273.42	3441.41
273.63	1940.66
273.84	2012.95
274.05	3000.48
274.26	3271.83
274.47	2130.71
274.68	2376.46
274.89	3193.19
275.10	3199.75
275.31	2252.77
275.52	2253.18
275.73	3102.26
275.94	3256.07
276.15	2229.21
276.36	2074.39
276.57	2907.09
276.78	2962.18
276.99	2092.61
277.20	2051.04
277.41	3096.32
277.63	3121.72
277.84	2071.93
278.05	1963.18
278.26	2926.14
278.47	3031.81
278.68	2254.61
278.89	1888.43
279.10	3044.92
279.31	3125.81
279.52	2092.00
279.73	2109.82
279.94	3093.25
280.15	3523.94
280.36	2134.39
280.57	2288.20
280.78	3157.76
280.99	3108.20
281.20	2256.04
281.41	2039.98
281.62	2912.01
281.83	3128.68
282.04	2034.25
282.25	2256.66
282.46	3143.02
282.67	2746.53
282.88	2090.16
283.09	2083.60
283.30	3224.73
283.51	3234.97
283.72	2217.75
283.93	2204.84
284.14	3171.07
284.35	3050.04
284.56	1991.24
284.77	2127.23
284.98	2788.31
285.19	3285.35
285.40	2210.58
285.61	2171.67
285.82	2994.74
286.03	3248.69
286.24	1988.37
286.45	2043.05
286.66	2785.03
286.87	3316.48
287.08	2196.45
287.29	2018.07
287.50	3317.30
287.71	3226.57
287.92	2046.94
288.13	2101.42
288.34	2874.94
288.55	3077.69
288.76	2009.47
288.97	2196.45
289.18	2940.27
289.39	3084.24
289.60	1875.94
289.81	2208.12
290.02	2992.29
290.23	2984.30
290.44	2163.68
290.65	2146.48
290.86	2724.21
291.07	3204.46
291.28	2330.79
291.49	2015.61
291.70	2924.91
291.91	2594.37
292.12	2053.50
292.33	1942.91
292.54	3410.07
292.75	3291.70
292.96	2195.42
293.17	2223.27
293.38	3145.07
293.58	3305.63
293.79	1914.03
294.00	2289.63
294.21	2831.52
294.42	3500.39
294.63	2066.20
294.84	2059.64
295.05	3090.59
295.26	3499.36
295.47	1944.55
295.68	1943.73
295.89	2950.10
296.10	3302.55
296.31	2065.99
296.52	2301.10
296.73	2821.08
296.94	3151.41
297.15	2115.96
297.36	2293.11
297.57	2712.53
297.78	3122.74
297.98	2160.40
298.19	2459.20
298.40	3112.71
298.61	3002.12
298.82	2129.27
299.03	2436.67
299.24	3144.04
299.45	3604.83
299.66	1954.17
299.87	2069.06
300.08	2891.73
300.29	3106.97
300.50	2024.21
300.71	2278.37
300.92	3112.30
301.13	2994.95
301.33	2104.08
301.54	2254.20
301.75	2853.43
301.96	3173.94
302.17	2051.04
302.38	2004.14
302.59	3080.55
302.80	3306.45
303.01	2426.64
303.22	2381.79
303.43	3023.83
303.64	3213.67
303.85	2171.67
304.05	2146.07
304.26	3098.99
304.47	3076.66
304.68	2033.84
304.89	2162.04
305.10	2710.28
305.31	3077.48
305.52	2073.16
305.73	2040.60
305.94	2763.12
306.15	3164.52
306.35	2063.53
306.56	2004.35
306.77	2928.39
306.98	2982.46
307.19	2118.01
307.40	2146.27
307.61	3101.03
307.82	3180.91
308.03	2278.57
308.24	2347.18
308.45	3229.03
308.65	3452.06
308.86	2105.52
309.07	2282.26
309.28	2948.05
309.49	2839.92
309.70	2153.03
309.91	1999.43
310.12	2879.24
310.33	3064.17
310.53	1946.80
310.74	2053.91
310.95	3321.40
311.16	3174.35
311.37	1979.36
311.58	2305.60
311.79	3138.72
312.00	3006.83
312.20	2061.08
312.41	1956.22
312.62	3089.98
312.83	3297.43
313.04	2058.00
313.25	2398.99
313.46	2866.75
313.67	3336.96
313.87	2153.23
314.08	2204.02
314.29	2980.61
314.50	3324.26
314.71	2130.09
314.92	2029.54
315.13	3283.51
315.34	3202.61
315.54	2070.09
315.75	1969.33
315.96	2869.00
316.17	3005.80
316.38	1890.07
316.59	1981.41
316.80	3112.91
317.00	3291.70
317.21	2289.63
317.42	2083.19
317.63	2755.13
317.84	2993.11
318.05	2305.19
318.26	2070.70
318.46	3354.16
318.67	2598.87
318.88	2126.82
319.09	2177.61
319.30	2753.29
319.51	3123.36
319.71	2047.35
319.92	2058.41
320.13	3032.84
320.34	2740.59
320.55	2092.61
320.76	2114.94
320.97	2983.28
321.17	3192.58
321.38	2046.33
321.59	2116.58
321.80	3229.65
322.01	2981.43
322.22	2209.35
322.42	1978.13
322.63	2603.38
322.84	3455.54
323.05	2255.43
323.26	2264.64
323.47	2420.29
323.67	3100.42
323.88	1998.82
324.09	2201.98
324.30	3075.64
324.51	3136.67
324.71	1944.34
324.92	2007.01
325.13	3073.59
325.34	3014.81
325.55	1948.64
325.76	2171.05
325.96	3146.91
326.17	3353.55
326.38	1865.90
326.59	2177.61
326.80	3092.64
327.00	2975.90
327.21	1953.97
327.42	2322.60
327.63	2863.27
327.84	3032.63
328.04	2228.19
328.25	2006.19
328.46	2987.78
328.67	3085.67
328.88	2129.48
329.08	2001.89
329.29	2719.50
329.50	3055.36
329.71	2186.41
329.92	2047.35
330.12	2781.96
330.33	3094.07
330.54	2051.45
330.75	2506.10
330.96	3029.56
331.16	3095.71
331.37	1867.95
331.58	2201.98
331.79	2900.13
332.00	3007.65
332.20	1791.97
332.41	2122.11
332.62	3015.43
332.83	2901.97
333.03	1968.51
333.24	2573.68
333.45	3235.59
333.66	2851.18
333.87	2149.96
334.07	2062.92
334.28	2880.06
334.49	3330.00
334.70	2155.08
334.90	1850.34
335.11	3140.76
335.32	2925.73
335.53	1992.67
335.74	2175.15
335.94	3245.42
336.15	3302.76
336.36	2236.59
336.57	2211.60
336.77	2875.14
336.98	2534.36
337.19	2153.85
337.40	2000.46
337.60	2892.14
337.81	3003.96
338.02	1869.80
338.23	1851.77
338.43	2723.18
338.64	2968.53
338.85	2156.31
339.06	1999.64
339.26	2984.10
339.47	2888.86
339.68	1973.63
339.89	2201.36
340.09	3078.92
340.30	2918.36
340.51	2082.58
340.72	1979.16
340.92	3000.48
341.13	3000.07
341.34	1980.18
341.55	1977.31
341.75	2990.44
341.96	2858.76
342.17	1979.16
342.38	2089.13
342.58	3113.12
342.79	3222.07
343.00	2162.45
343.20	1974.45
343.41	2652.53
343.62	3090.38
343.83	2277.75
344.03	2058.00
344.24	2566.10
344.45	3302.96
344.66	1893.96
344.86	2196.65
345.07	2857.94
345.28	3122.33
345.48	2230.24
345.69	2095.89
345.90	2869.00
346.11	3116.80
346.31	2205.25
346.52	2102.24
346.73	2914.67
346.93	2967.71
347.14	1892.32
347.35	1800.37
347.56	3147.32
347.76	3269.79
347.97	2012.54
348.18	2130.09
348.38	3084.24
348.59	3219.41
348.80	1980.59
349.01	1948.44
349.21	2859.37
349.42	2866.13
349.63	2105.31
349.83	2156.72
350.04	3125.61
350.25	3192.78
350.45	2071.52
350.66	1941.68
350.87	2866.54
351.08	3017.48
351.28	2057.18
351.49	2000.46
351.70	2852.41
351.90	3506.12
352.11	1981.00
352.32	2489.31
352.52	3060.69
352.73	3154.90
352.94	2140.13
353.14	2108.38
353.35	2414.15
353.56	3268.56
353.76	2115.35
353.97	2216.72
354.18	3280.03
354.39	3162.68
354.59	2079.71
354.80	1963.59
355.01	2994.74
355.21	3347.40
355.42	2020.12
355.63	2164.09
355.83	2747.55
356.04	2972.63
356.25	2374.01
356.45	2425.00
356.66	2902.38
356.87	2938.43
357.07	2059.03
357.28	2076.23
357.49	2914.87
357.69	2622.42
357.90	1813.89
358.11	1888.64
358.31	3418.88
358.52	3157.56
358.72	2047.35
358.93	1905.02
359.14	3262.62
359.34	3256.88
359.55	2036.70
359.76	2044.90
359.96	2639.83
360.17	2568.77
360.38	2148.93
360.58	2017.66
360.79	3294.36
361.00	3217.36
361.20	1945.78
361.41	2072.95
361.62	2760.25
361.82	3217.56
362.03	2079.92
362.23	2083.81
362.44	3049.22
362.65	3334.50
362.85	2196.65
363.06	2234.74
363.27	2866.75
363.47	3219.00
363.68	2097.12
363.89	2023.19
364.09	3086.29
364.30	3312.79
364.50	2088.72
364.71	2232.29
364.92	2716.84
365.12	3153.26
365.33	2092.82
365.54	2126.20
365.74	2987.99
365.95	3070.93
366.15	2119.65
366.36	2273.04
366.57	3328.77
366.77	3235.38
366.98	2029.13
367.18	2144.43
367.39	3071.95
367.60	3213.26
367.80	1956.42
368.01	2156.31
368.22	2919.99
368.42	3390.21
368.63	2123.74
368.83	2156.72
369.04	2693.49
369.25	3451.65
369.45	2058.62
369.66	2320.55
369.86	3022.60
370.07	2989.62
370.28	1902.56
370.48	2325.67
370.69	2759.84
370.89	2947.23
371.10	1953.76
371.31	2207.10
371.51	2957.47
371.72	4118.87
371.92	2169.41
372.13	2247.85
372.33	3237.84
372.54	3088.95
372.75	2041.21
372.95	2166.75
373.16	2839.51
373.36	2906.89
373.57	2102.04
373.78	2233.72
373.98	3362.36
374.19	3147.32
374.39	2044.49
374.60	2008.44
374.80	3282.07
375.01	3019.12
375.22	1953.35
375.42	2201.36
375.63	2934.53
375.83	3328.97
376.04	2243.96
376.24	1906.25
376.45	2882.52
376.66	2804.08
376.86	1993.90
377.07	2076.44
377.27	2700.04
377.48	3225.35
377.68	2158.15
377.89	2049.61
378.09	2929.21
378.30	3090.18
378.51	2007.42
378.71	2157.94
378.92	2641.47
379.12	3100.01
379.33	1978.13
379.53	2437.90
379.74	3150.39
379.94	2947.64
380.15	2154.87
380.36	2139.31
380.56	3094.07
380.77	2969.96
380.97	2057.80
381.18	2323.83
381.38	2866.95
381.59	2934.53
381.79	2018.07
382.00	2198.08
382.20	2875.55
382.41	3107.38
382.61	2218.15
382.82	2061.69
383.03	2723.59
383.23	3415.40
383.44	2034.86
383.64	2011.72
383.85	2986.14
384.05	3051.06
384.26	2010.08
384.46	2205.66
384.67	3083.63
384.87	2903.81
385.08	1983.87
385.28	2142.79
385.49	3050.45
385.69	2935.97
385.90	2676.29
386.10	1988.78
386.31	2996.79
386.51	3337.57
386.72	2042.85
386.92	2259.93
387.13	2999.46
387.33	3275.32
387.54	2342.06
387.74	2031.79
387.95	3182.34
388.15	3046.97
388.36	2451.42
388.56	2176.99
388.77	3028.13
388.97	3549.54
389.18	2705.98
389.38	2764.96
389.59	3995.79
389.79	4181.95
390.00	3362.97
390.20	4143.25
390.41	4690.05
390.61	5121.77
390.82	4494.47
391.02	4925.36
391.23	6241.80
391.43	7014.70
391.64	6214.15
391.84	6334.98
392.05	7560.08
392.25	8228.33
392.46	7707.53
392.66	7994.86
392.87	9427.82
393.07	9660.68
393.28	8923.82
393.48	9277.30
393.69	10971.17
393.89	10870.21
394.10	10391.39
394.30	10446.28
394.51	11568.36
394.71	11472.31
394.92	10664.59
395.12	10891.10
395.32	13158.20
395.53	11911.19
395.73	11210.79
395.94	11207.92
396.14	11883.95
396.35	11998.02
396.55	11155.70
396.76	10896.22
396.96	11937.81
397.17	11656.22
397.37	10943.32
397.58	10998.21
397.78	11213.24
397.98	11521.87
398.19	10466.35
398.39	10827.41
398.60	10779.07
398.80	11278.98
399.01	10401.84
399.21	10457.13
399.42	11314.82
399.62	11308.68
399.83	10096.90
400.03	9867.93
400.23	10809.18
400.44	11451.01
400.64	9866.29
400.85	10014.77
401.05	11183.34
401.26	10712.92
401.46	10277.94
401.66	10492.36
401.87	11189.90
402.07	10715.79
402.28	9983.44
402.48	10471.67
402.69	11431.56
402.89	11485.62
403.09	10626.50
403.30	10324.63
403.50	11690.83
403.71	11554.84
403.91	10497.68
404.12	10879.63
404.32	11082.17
404.52	11440.77
404.73	10656.61
404.93	10146.46
405.14	10358.22
405.34	11436.88
405.54	10489.70
405.75	10451.81
405.95	11873.51
406.16	11436.88
406.36	10866.52
406.57	10652.71
406.77	11639.84
406.97	11746.53
407.18	10559.12
407.38	10707.80
407.59	11995.16
407.79	11637.79
407.99	10665.00
408.20	10372.55
408.40	11614.65
408.61	11004.76
408.81	10531.06
409.01	10442.18
409.22	11616.90
409.42	11571.84
409.63	10383.61
409.83	10311.73
410.03	10961.14
410.24	11105.93
410.44	10109.18
410.64	9955.79
410.85	10428.05
411.05	10624.66
411.26	8786.61
411.46	8690.15
411.66	9410.62
411.87	8941.43
412.07	7242.23
412.28	7038.87
412.48	7633.80
412.68	6812.16
412.89	5799.44
413.09	5392.71
413.29	5924.16
413.50	5840.19
413.70	4055.59
413.91	3916.54
414.11	4398.22
414.31	4171.30
414.52	2914.46
414.72	2737.72
414.92	3668.12
415.13	3557.73
415.33	2334.07
415.53	2336.73
415.74	3494.45
415.94	3290.27
416.14	2247.65
416.35	2018.07
416.55	3169.23
416.76	3169.03
416.96	2201.16
417.16	2172.49
417.37	3076.25
417.57	3151.41
417.77	1966.66
417.98	2251.54
418.18	2890.50
418.38	3255.86
418.59	2088.93
418.79	2053.09
418.99	2819.03
419.20	3271.63
419.40	2103.47
419.60	2286.35
419.81	3001.30
420.01	3087.93
420.21	2367.25
420.42	2291.68
420.62	2953.58
420.82	3005.60
421.03	2046.54
421.23	2250.31
421.43	2746.74
421.64	3045.94
421.84	1911.78
422.04	2123.54
422.25	2957.88
422.45	2859.37
422.65	1945.57
422.86	2286.15
423.06	2558.94
423.26	2992.90
423.47	2037.93
423.67	2205.66
423.87	2950.71
424.08	2714.79
424.28	2067.42
424.48	2207.51
424.68	3004.17
424.89	3063.56
425.09	2196.24
425.29	2232.29
425.50	2848.72
425.70	2899.51
425.90	2235.77
426.11	2040.80
426.31	3292.93
426.51	3137.69
426.71	2228.80
426.92	2221.43
427.12	3170.05
427.32	3027.72
427.53	2195.63
427.73	2362.13
427.93	3263.85
428.14	3332.66
428.34	2015.00
428.54	2247.85
428.74	3062.33
428.95	3326.72
429.15	2055.14
429.35	2127.23
429.56	2632.87
429.76	2915.28
429.96	2183.75
430.16	2143.40
430.37	3014.20
430.57	3084.04
430.77	2200.13
430.97	2220.82
431.18	2941.09
431.38	3171.89
431.58	2374.01
431.79	2127.43
431.99	3099.60
432.19	3228.01
432.39	2644.95
432.60	2264.23
432.80	3113.94
433.00	3447.35
433.20	2143.40
433.41	2200.34
433.61	3142.20
433.81	2972.42
434.01	2250.10
434.22	2207.71
434.42	3495.88
434.62	3023.62
434.82	2238.43
435.03	2121.90
435.23	3071.75
435.43	3476.02
435.63	2117.19
435.84	2179.45
436.04	2975.70
436.24	3376.90
436.44	2247.44
436.65	2369.50
436.85	3031.20
437.05	2957.88
437.25	2111.46
437.46	2031.79
437.66	3046.76
437.86	3266.71
438.06	2224.91
438.27	2225.32
438.47	3106.56
438.67	3120.08
438.87	2145.86
439.08	2284.92
439.28	3036.11
439.48	3345.97
439.68	2336.32
439.88	2386.29
440.09	3231.08
440.29	3057.41
440.49	2052.88
440.69	2412.30
440.90	3111.89
441.10	3149.78
441.30	2180.68
441.50	2213.85
441.70	3199.54
441.91	3225.96
442.11	2451.62
442.31	2328.54
442.51	2740.18
442.71	3291.29
442.92	2372.78
443.12	2288.61
443.32	3381.81
443.52	3358.67
443.73	2367.04
443.93	2502.41
444.13	3206.50
444.33	3522.71
444.53	2399.81
444.74	2388.14
444.94	3072.98
445.14	3493.63
445.34	2452.65
445.54	2517.16
445.74	3085.47
445.95	3726.89
446.15	2501.18
446.35	2606.86
446.55	3549.95
446.75	3480.11
446.96	2350.45
447.16	2301.51
447.36	2938.63
447.56	3569.20
447.76	2410.87
447.97	2278.98
448.17	3264.46
448.37	3286.17
448.57	2605.43
448.77	2814.52
448.97	3330.00
449.18	3483.39
449.38	2320.76
449.58	2503.03
449.78	3143.22
449.98	3377.71
450.18	2309.49
450.39	2398.17
450.59	3235.38
450.79	3195.86
450.99	2810.22
451.19	2223.07
451.39	3354.57
451.60	3369.73
451.80	2273.25
452.00	2508.56
452.20	3242.14
452.40	3366.04
452.60	2381.17
452.80	2405.95
453.01	3204.46
453.21	3393.89
453.41	2357.42
453.61	2349.22
453.81	2764.14
454.01	3296.82
454.22	2435.85
454.42	2301.10
454.62	3394.30
454.82	3386.73
455.02	2280.00
455.22	2272.84
455.42	2984.10
455.62	3345.97
455.83	2309.29
456.03	2561.60
456.23	3086.49
456.43	3156.12
456.63	2243.55
456.83	2264.64
457.03	3497.32
457.24	3193.81
457.44	2106.95
457.64	2388.55
457.84	3092.43
458.04	3492.20
458.24	2259.11
458.44	2334.27
458.64	2870.43
458.84	3253.61
459.05	2408.00
459.25	2361.92
459.45	2977.95
459.65	3265.28
459.85	2615.46
460.05	2425.20
460.25	3061.10
460.45	3094.28
460.65	2342.26
460.86	2234.13
461.06	3082.60
461.26	3137.69
461.46	2221.23
461.66	2304.78
461.86	3404.54
462.06	3483.80
462.26	2187.23
462.46	2289.01
462.66	3094.48
462.87	2838.28
463.07	2024.01
463.27	2164.09
463.47	3121.10
463.67	3190.33
463.87	2120.67
464.07	4146.73
464.27	2959.52
464.47	3200.16
464.67	2360.49
464.87	2284.30
465.08	3167.80
465.28	2920.40
465.48	2192.76
465.68	2228.60
465.88	3379.56
466.08	3192.58
466.28	2083.40
466.48	2187.23
466.68	3087.93
466.88	3236.81
467.08	2192.56
467.28	2231.06
467.48	2990.24
467.68	3140.76
467.89	2272.63
468.09	2212.22
468.29	2849.75
468.49	3301.53
468.69	2162.04
468.89	2178.83
469.09	3004.98
469.29	3215.93
469.49	1885.56
469.69	2233.51
469.89	3164.73
470.09	3176.81
470.29	2104.90
470.49	2734.04
470.69	3163.91
470.89	3192.58
471.09	2066.61
471.29	2269.35
471.49	3044.92
471.70	3556.50
471.90	2283.89
472.10	2157.13
472.30	2850.36
472.50	2849.75
472.70	2106.54
472.90	2463.30
473.10	3384.06
473.30	3153.46
473.50	2064.56
473.70	2087.90
473.90	3401.68
474.10	3255.04
474.30	1912.39
474.50	2044.49
474.70	3475.61
474.90	2981.02
475.10	2105.11
475.30	2111.25
475.50	2807.56
475.70	3138.51
475.90	2249.69
476.10	2212.42
476.30	2874.53
476.50	3142.40
476.70	2118.62
476.90	2268.74
477.10	2984.71
477.30	3091.00
477.50	2040.19
477.70	2281.03
477.90	3178.65
478.10	3347.61
478.30	2284.51
478.50	2106.13
478.70	2847.09
478.90	3256.68
479.10	2042.23
479.30	2188.25
479.50	3104.31
479.70	3452.67
479.90	2171.87
480.10	2357.62
480.30	3070.31
480.50	3249.51
480.70	2119.44
480.90	2207.30
481.10	2788.51
481.30	3122.95
481.50	2082.78
481.70	2309.49
481.90	3039.60
482.10	3225.76
482.30	2135.42
482.50	8746.67
482.70	2697.99
482.90	2911.39
483.10	2314.00
483.30	2171.46
483.50	3338.19
483.70	3329.38
483.90	2193.17
484.10	2125.18
484.30	3228.01
484.50	3104.52
484.70	2405.34
484.90	2222.87
485.10	3036.73
485.30	2745.71
485.50	2254.61
485.69	2236.38
485.89	3329.38
486.09	3310.34
486.29	2478.04
486.49	2234.13
486.69	3145.27
486.89	3308.70
487.09	2226.14
487.29	2235.77
487.49	2942.11
487.69	3286.38
487.89	2238.84
488.09	2175.35
488.29	2717.86
488.49	3119.06
488.69	2389.57
488.89	2327.93
489.09	3028.13
489.29	3129.30
489.48	2067.83
489.68	2053.50
489.88	3094.69
490.08	3477.45
490.28	2345.33
490.48	2244.57
490.68	3284.33
490.88	3445.91
491.08	2190.10
491.28	2607.68
491.48	3096.32
491.68	3142.61
491.88	2250.31
492.08	2229.42
492.27	3358.26
492.47	3331.23
492.67	2305.40
492.87	2252.15
493.07	3375.67
493.27	3264.87
493.47	2266.08
493.67	2330.38
493.87	3466.80
494.07	3213.67
494.27	2184.16
494.46	2395.92
494.66	3326.72
494.86	3224.94
495.06	2128.45
495.26	2128.86
495.46	2943.14
495.66	2786.88
495.86	2125.59
496.06	2469.03
496.26	2920.20
496.45	3209.99
496.65	2130.50
496.85	2113.50
497.05	3087.11
497.25	3399.01
497.45	2173.30
497.65	2181.09
497.85	3290.47
498.05	3090.59
498.24	2466.16
498.44	2102.04
498.64	2838.89
498.84	3399.22
499.04	2030.97
499.24	2631.23
499.44	3250.54
499.64	3303.17
499.83	2187.44
500.03	2321.17
500.23	3371.16
500.43	3596.03
500.63	2107.77
500.83	2414.15
501.03	3235.38
501.22	3237.02
501.42	2485.62
501.62	2253.38
501.82	2946.21
502.02	3174.56
502.22	2326.08
502.42	2371.14
502.62	2802.65
502.81	3075.64
503.01	2148.11
503.21	2271.40
503.41	3422.36
503.61	3452.67
503.81	2254.20
504.00	2411.48
504.20	3093.05
504.40	3297.84
504.60	2563.24
504.80	2521.05
505.00	3353.55
505.20	3326.31
505.39	2154.67
505.59	2513.27
505.79	3126.22
505.99	3470.08
506.19	2548.70
506.39	2460.22
506.58	3280.44
506.78	3279.21
506.98	2513.68
507.18	2557.50
507.38	3152.44
507.57	3136.46
507.77	2073.16
507.97	2358.03
508.17	3352.73
508.37	3221.25
508.57	2211.60
508.76	2427.05
508.96	3029.36
509.16	3583.13
509.36	2184.98
509.56	2348.82
509.75	3388.57
509.95	2768.65
510.15	2302.74
510.35	2428.07
510.55	3050.04
510.75	3158.99
510.94	2434.83
511.14	2312.16
511.34	3223.30
511.54	2822.10
511.74	2240.27
511.93	2750.83
512.13	3512.47
512.33	3262.00
512.53	2127.84
512.72	2355.37
512.92	3269.58
513.12	3481.14
513.32	2620.38
513.52	2213.65
513.71	3232.72
513.91	3407.82
514.11	2628.36
514.31	2371.96
514.51	3272.24
514.70	3372.80
514.90	2689.19
515.10	2390.59
515.30	2993.31
515.49	3407.21
515.69	2429.91
515.89	2502.21
516.09	3261.19
516.29	3641.29
516.48	2724.41
516.68	2510.20
516.88	3332.05
517.08	3461.48
517.27	2305.60
517.47	2399.20
517.67	3392.67
517.87	3353.14
518.06	2420.49
518.26	2378.92
518.46	3057.41
518.66	3477.04
518.85	2505.08
519.05	2433.81
519.25	3431.37
519.45	3017.89
519.64	2379.94
519.84	2556.89
520.04	3145.48
520.24	3396.56
520.43	2466.57
520.63	2452.44
520.83	2875.76
521.03	3347.00
521.22	2521.87
521.42	2391.82
521.62	3336.14
521.82	3448.98
522.01	2416.40
522.21	2586.17
522.41	3049.84
522.61	3430.55
522.80	2366.63
523.00	2557.91
523.20	3270.40
523.39	3600.74
523.59	2518.59
523.79	2444.25
523.99	3186.64
524.18	3523.33
524.38	2483.98
524.58	2594.37
524.77	3317.91
524.97	3188.28
525.17	2377.28
525.37	2510.81
525.56	3602.58
525.76	3451.44
525.96	2521.46
526.15	2328.13
526.35	3322.21
526.55	3484.62
526.75	2469.65
526.94	2636.35
527.14	2980.82
527.34	3577.19
527.53	2586.58
527.73	2377.69
527.93	3298.46
528.12	3327.13
528.32	2393.26
528.52	2604.81
528.72	3434.85
528.91	3427.28
529.11	2551.36
529.31	2524.12
529.50	3697.81
529.70	3187.66
529.90	2487.05
530.09	2361.72
530.29	3504.48
530.49	3344.33
530.68	2379.53
530.88	2755.54
531.08	3520.46
531.27	3343.51
531.47	2470.46
531.67	2519.62
531.86	3427.48
532.06	3156.53
532.26	2439.13
532.45	2965.66
532.65	2985.94
532.85	2957.47
533.04	2358.03
533.24	2494.84
533.44	3241.52
533.63	3336.96
533.83	2550.34
534.03	2912.21
534.22	3291.09
534.42	3314.43
534.62	2555.66
534.81	2505.08
535.01	2985.94
535.21	3627.98
535.40	2403.29
535.60	2952.76
535.80	3017.68
535.99	3491.99
536.19	2591.29
536.38	2472.92
536.58	3522.10
536.78	3346.38
536.97	2610.14
537.17	2682.02
537.37	3276.14
537.56	3451.44
537.76	2415.58
537.96	2453.67
538.15	3679.79
538.35	3740.41
538.54	2390.59
538.74	2634.92
538.94	3456.56
539.13	3437.11
539.33	2570.61
539.53	2522.89
539.72	3255.45
539.92	3556.91
540.11	2362.33
540.31	2548.90
540.51	3424.61
540.70	3690.85
540.90	2476.61
541.10	2432.17
541.29	3638.83
541.49	3306.86
541.68	2522.07
541.88	2610.34
542.08	3584.15
542.27	3428.50
542.47	2445.48
542.66	2547.47
542.86	3092.43
543.06	3680.61
543.25	2637.37
543.45	2958.70
543.64	3467.42
543.84	3465.37
544.04	2324.65
544.23	2744.89
544.43	3618.15
544.62	3686.55
544.82	2360.69
545.01	2534.57
545.21	3669.76
545.41	3451.65
545.60	2380.35
545.80	2639.83
545.99	3575.55
546.19	3589.68
546.39	2751.65
546.58	2590.27
546.78	3439.97
546.97	3483.80
547.17	2513.88
547.36	2575.12
547.56	3558.55
547.76	3566.95
547.95	2605.84
548.15	2541.12
548.34	3373.21
548.54	3451.03
548.73	2550.95
548.93	2583.72
549.12	3553.02
549.32	3127.25
549.52	2823.94
549.71	2538.25
549.91	3464.96
550.10	3301.53
550.30	2591.29
550.49	2339.39
550.69	3304.60
550.88	3477.25
551.08	2525.96
551.28	2540.51
551.47	3767.65
551.67	3300.30
551.86	2468.62
552.06	2828.86
552.25	3308.90
552.45	3742.66
552.64	2665.23
552.84	2881.29
553.03	3418.88
553.23	3869.84
553.42	2358.65
553.62	2645.16
553.81	3530.90
554.01	3605.45
554.21	2480.91
554.40	2506.30
554.60	3391.44
554.79	3238.45
554.99	2667.89
555.18	2709.05
555.38	3296.00
555.57	7121.61
555.77	2620.38
555.96	2674.24
556.16	3597.67
556.35	3649.28
556.55	2300.69
556.74	2461.45
556.94	3301.74
557.13	3570.63
557.33	2696.15
557.52	2554.43
557.72	3553.23
557.91	3736.93
558.11	2852.82
558.30	2614.44
558.50	3421.13
558.69	3560.60
558.89	2558.94
559.08	2437.29
559.28	3135.24
559.47	3604.63
559.67	2454.70
559.86	2706.39
560.06	3076.46
560.25	3537.46
560.45	2988.19
560.64	2661.74
560.84	3474.79
561.03	3668.12
561.23	2384.45
561.42	2255.63
561.62	3472.33
561.81	3673.65
562.00	2565.29
562.20	2920.81
562.39	3350.27
562.59	3469.46
562.78	2706.39
562.98	2558.12
563.17	3632.69
563.37	3316.28
563.56	2393.46
563.76	2455.92
563.95	3392.87
564.15	3465.37
564.34	2397.15
564.54	2624.47
564.73	3631.87
564.92	3768.88
565.12	2553.61
565.31	2653.76
565.51	3684.30
565.70	3666.68
565.90	2548.08
566.09	2797.53
566.29	3553.84
566.48	3806.76
566.67	2744.07
566.87	2547.67
567.06	3544.62
567.26	3303.37
567.45	2370.52
567.65	2431.35
567.84	3712.56
568.03	3773.18
568.23	2430.53
568.42	2825.99
568.62	3342.28
568.81	3607.09
569.01	2594.57
569.20	2323.63
569.39	3632.28
569.59	3706.62
569.78	2449.78
569.98	2573.68
570.17	3604.83
570.37	3382.83
570.56	2743.66
570.75	2490.94
570.95	3729.97
571.14	3697.61
571.34	2351.48
571.53	2262.60
571.72	3486.67
571.92	3590.50
572.11	2699.43
572.31	2877.40
572.50	3366.86
572.69	3029.56
572.89	2656.83
573.08	2554.23
573.28	3626.34
573.47	3744.51
573.66	2420.08
573.86	2480.70
574.05	2994.95
574.25	3688.80
574.44	2404.32
574.63	2556.48
574.83	3355.80
575.02	3506.94
575.22	2414.96
575.41	2528.22
575.60	3674.47
575.80	3544.01
575.99	2518.59
576.18	2390.80
576.38	3212.03
576.57	3869.02
576.77	2364.58
576.96	2315.23
577.15	3412.94
577.35	3812.91
577.54	2845.86
577.73	2397.76
577.93	3524.55
578.12	3582.72
578.31	2441.18
578.51	2411.07
578.70	2991.26
578.90	3910.60
579.09	2317.69
579.28	2640.24
579.48	3096.32
579.67	3697.61
579.86	2417.22
580.06	2459.61
580.25	3670.78
580.44	3854.89
580.64	2269.76
580.83	2270.58
581.02	3660.95
581.22	3602.99
581.41	2552.79
581.60	2389.37
581.80	3386.32
581.99	3733.86
582.18	2541.32
582.38	2687.96
582.57	2903.61
582.76	3910.60
582.96	2514.09
583.15	2495.04
583.34	3343.51
583.54	3309.11
583.73	2326.90
583.92	2370.52
584.12	3142.61
584.31	3480.11
584.50	2418.04
584.70	2865.93
584.89	3257.50
585.08	3735.70
585.28	2568.77
585.47	2419.06
585.66	3224.53
585.86	3449.19
586.05	2700.86
586.24	2497.29
586.43	3601.15
586.63	3580.67
586.82	2446.50
587.01	2451.21
587.21	3184.18
587.40	3864.11
587.59	2529.65
587.79	2487.05
587.98	3647.84
588.17	3510.42
588.36	2538.25
588.56	3003.14
588.75	3576.37
588.94	3602.17
589.14	2775.20
589.33	2337.96
589.52	3553.23
589.71	3774.82
589.91	2498.32
590.10	2465.14
590.29	3750.65
590.49	3737.95
590.68	2483.78
590.87	2518.39
591.06	3565.10
591.26	3385.91
591.45	2452.65
591.64	2517.36
591.84	3362.36
592.03	3898.72
592.22	2405.13
592.41	2432.58
592.61	3190.12
592.80	3329.79
592.99	2359.67
593.18	2485.21
593.38	3184.18
593.57	3276.95
593.76	2508.76
593.95	2344.92
594.15	3385.09
594.34	3778.50
594.53	2579.01
594.72	2479.68
594.92	3357.24
595.11	3553.64
595.30	2372.57
595.49	2352.09
595.69	3105.13
595.88	3472.74
596.07	2524.94
596.26	2505.89
596.46	3362.15
596.65	3249.92
596.84	2400.63
597.03	2460.22
597.22	3395.33
597.42	4052.52
597.61	2208.94
597.80	2343.29
597.99	3685.11
598.19	3326.72
598.38	2299.87
598.57	2574.50
598.76	3341.88
598.95	3464.14
599.15	2541.32
599.34	2290.65
599.53	3288.01
599.72	2962.39
599.92	2233.92
600.11	2230.85
600.30	3521.69
600.49	3485.85
600.68	2278.16
600.88	2331.61
601.07	3205.48
601.26	3506.12
601.45	2270.99
601.64	2439.54
601.84	3592.14
602.03	3614.46
602.22	2277.34
602.41	2342.47
602.60	3548.93
602.80	3480.32
602.99	2759.23
603.18	2507.12
603.37	3186.84
603.56	3035.91
603.76	2246.01
603.95	2281.85
604.14	3242.55
604.33	3590.50
604.52	2373.60
604.71	2202.80
604.91	2735.88
605.10	3619.99
605.29	2282.67
605.48	2167.77
605.67	3248.90
605.86	3444.48
606.06	2454.70
606.25	2189.07
606.44	3078.71
606.63	2960.13
606.82	2383.63
607.01	2302.74
607.21	3473.76
607.40	3300.71
607.59	2437.49
607.78	2614.44
607.97	3411.92
608.16	3525.58
608.36	2422.75
608.55	2256.25
608.74	3209.99
608.93	3361.74
609.12	2453.88
609.31	2383.84
609.50	3084.45
609.70	3596.85
609.89	2340.62
610.08	2450.80
610.27	3120.69
610.46	3454.10
610.65	2588.22
610.84	2424.79
611.03	3840.56
611.23	3386.32
611.42	2432.78
611.61	2461.25
611.80	3503.66
611.99	3452.67
612.18	2493.20
612.37	2181.50
612.56	3228.01
612.76	3279.62
612.95	2358.85
613.14	2311.13
613.33	3443.25
613.52	3445.50
613.71	2227.58
613.90	2594.78
614.09	2998.84
614.29	3172.51
614.48	2418.04
614.67	2142.79
614.86	3222.89
615.05	3789.97
615.24	2355.16
615.43	2443.02
615.62	3723.62
615.81	3278.59
616.00	2426.23
616.20	2471.28
616.39	3426.46
616.58	3127.25
616.77	2268.74
616.96	2294.54
617.15	3543.40
617.34	3275.73
617.53	2379.33
617.72	2317.28
617.91	3039.39
618.10	3413.35
618.29	2239.25
618.49	2219.38
618.68	3403.11
618.87	3378.53
619.06	2290.65
619.25	2263.42
619.44	2969.55
619.63	3049.63
619.82	2411.69
620.01	2195.42
620.20	3174.56
620.39	3514.11
620.58	2254.61
620.77	2427.25
620.96	3482.78
621.16	3325.08
621.35	2309.49
621.54	2412.30
621.73	3706.41
621.92	3506.33
622.11	2460.84
622.30	2281.44
622.49	3274.50
622.68	3315.87
622.87	2412.30
623.06	2343.08
623.25	3585.99
623.44	3643.13
623.63	2141.15
623.82	2380.97
624.01	3293.95
624.20	3472.13
624.39	2572.45
624.58	2448.14
624.77	3202.00
624.96	3384.47
625.15	2164.50
625.34	2271.81
625.53	3326.31
625.72	3570.63
625.92	2326.70
626.11	2420.90
626.30	3602.58
626.49	3420.52
626.68	2340.62
626.87	2422.75
627.06	3607.70
627.25	3415.60
627.44	2430.32
627.63	2494.63
627.82	2702.91
628.01	3267.33
628.20	2185.80
628.39	2352.71
628.58	3198.52
628.77	3771.13
628.96	2136.03
629.15	2277.96
629.34	3208.76
629.53	3427.48
629.72	2673.01
629.91	2700.25
630.10	3602.17
630.29	3370.55
630.48	2216.11
630.67	2371.34
630.86	3258.93
631.05	3347.20
631.24	2103.47
631.43	2270.79
631.62	3007.85
631.81	3616.30
632.00	2292.91
632.19	2546.85
632.37	3648.66
632.56	3254.43
632.75	2292.70
632.94	2615.26
633.13	3581.69
633.32	3198.31
633.51	2158.56
633.70	2211.60
633.89	3300.71
634.08	3407.21
634.27	2148.11
634.46	2488.28
634.65	3238.04
634.84	3563.06
635.03	2364.79
635.22	2408.82
635.41	3328.97
635.60	3529.88
635.79	2185.39
635.98	2280.62
636.17	3079.74
636.36	3207.94
636.55	2171.87
636.74	2293.52
636.92	3589.47
637.11	3395.12
637.30	2403.91
637.49	2340.01
637.68	3118.44
637.87	3470.69
638.06	2423.77
638.25	2266.28
638.44	3043.90
638.63	3266.10
638.82	2132.35
639.01	2167.37
639.20	3030.79
639.39	3409.46
639.58	2256.66
639.76	2232.29
639.95	3353.55
640.14	3174.97
640.33	2133.57
640.52	2191.33
640.71	3105.95
640.90	3308.08
641.09	2255.43
641.28	2205.87
641.47	3357.44
641.66	3335.73
641.84	2104.08
642.03	2064.15
642.22	3069.70
642.41	2960.75
642.60	2190.92
642.79	2133.98
642.98	3200.36
643.17	3198.11
643.36	2167.77
643.55	2212.01
643.73	2944.16
643.92	3572.07
644.11	2164.50
644.30	2504.87
644.49	3446.94
644.68	3607.29
644.87	2248.87
645.06	2561.39
645.25	2861.42
645.43	3362.36
645.62	2327.93
645.81	2191.12
646.00	3370.14
646.19	3243.16
646.38	2373.60
646.57	2178.22
646.76	3096.94
646.94	3579.85
647.13	2134.39
647.32	2255.43
647.51	3326.31
647.70	3011.33
647.89	1973.01
648.08	2170.23
648.26	3082.81
648.45	3498.75
648.64	2188.05
648.83	2107.36
649.02	2882.93
649.21	3120.69
649.40	2226.35
649.58	2189.48
649.77	2963.82
649.96	3411.71
650.15	2021.14
650.34	2024.83
650.53	3107.79
650.71	2950.71
650.90	2220.20
651.09	2469.85
651.28	3216.54
651.47	2995.15
651.66	2465.55
651.84	2241.50
652.03	4123.79
652.22	3344.95
652.41	2208.73
652.60	2279.59
652.79	3049.84
652.97	3280.85
653.16	2090.77
653.35	2253.99
653.54	3057.21
653.73	3697.20
653.91	2083.40
654.10	2157.94
654.29	2965.66
654.48	3419.49
654.67	2285.53
654.86	2197.68
655.04	2996.79
655.23	3186.02
655.42	2178.01
655.61	2457.77
655.80	3085.47
655.98	3365.84
656.17	2201.98
656.36	2145.25
656.55	3739.80
656.73	3162.47
656.92	2093.43
657.11	2223.07
657.30	3490.97
657.49	3646.41
657.67	2176.17
657.86	2383.63
658.05	3054.34
658.24	2948.46
658.43	2019.91
658.61	2127.23
658.80	3083.22
658.99	3149.98
659.18	2059.03
659.36	2000.46
659.55	2641.88
659.74	3125.00
659.93	2110.02
660.12	2120.26
660.30	3472.54
660.49	3229.85
660.68	2130.91
660.87	2463.50
661.05	3080.55
661.24	3072.77
661.43	2129.89
661.62	2492.58
661.80	2813.70
661.99	3145.07
662.18	2119.24
662.37	2370.52
662.55	3254.63
662.74	3640.26
662.93	2218.56
663.12	2076.85
663.30	3369.11
663.49	3037.75
663.68	2007.42
663.87	2304.99
664.05	2936.99
664.24	2924.91
664.43	1942.29
664.61	2154.26
664.80	3205.28
664.99	2961.57
665.18	2136.03
665.36	2303.35
665.55	3082.81
665.74	2983.89
665.93	2069.68
666.11	2126.41
666.30	3132.57
666.49	3135.24
666.67	1916.49
666.86	2341.85
667.05	3511.45
667.24	3160.43
667.42	2176.58
667.61	2467.39
667.80	2963.21
667.98	3051.68
668.17	2105.11
668.36	2121.70
668.54	3109.64
668.73	3307.26
668.92	2494.43
669.11	2121.08
669.29	3201.79
669.48	3419.29
669.67	2166.96
669.85	2282.87
670.04	2970.37
670.23	3216.95
670.41	2204.43
670.60	2179.86
670.79	3310.34
670.97	3251.36
671.16	2187.85
671.35	1940.45
671.53	3077.28
671.72	2939.86
671.91	2075.00
672.10	2015.61
672.28	3270.81
672.47	3803.28
672.66	2292.29
672.84	2336.12
673.03	3292.11
673.22	3388.57
673.40	2176.58
673.59	2320.55
673.78	3098.17
673.96	3369.93
674.15	2072.13
674.33	2284.71
674.52	2800.60
674.71	3148.96
674.89	2019.71
675.08	2098.96
675.27	2605.43
675.45	3172.51
675.64	2179.86
675.83	2124.77
676.01	3078.92
676.20	2850.77
676.39	2048.99
676.57	2096.51
676.76	3095.50
676.94	3251.56
677.13	1915.67
677.32	2175.76
677.50	3316.48
677.69	3326.52
677.88	2048.38
678.06	2516.34
678.25	3201.18
678.44	3317.91
678.62	1982.84
678.81	2357.21
678.99	2979.79
679.18	3414.78
679.37	2033.02
679.55	2198.49
679.74	3183.57
679.92	3033.04
680.11	2090.57
680.30	2333.87
680.48	2836.64
680.67	3056.18
680.85	2234.54
681.04	2278.98
681.23	2742.84
681.41	3693.51
681.60	2204.43
681.78	2103.88
681.97	2705.98
682.16	3058.44
682.34	2164.70
682.53	2215.90
682.71	3023.21
682.90	2910.57
683.09	1937.79
683.27	2081.97
683.46	3312.79
683.64	3269.38
683.83	2105.31
684.02	1974.24
684.20	3012.36
684.39	2993.31
684.57	2536.41
684.76	2209.35
684.94	3081.37
685.13	2886.00
685.32	2098.55
685.50	2181.50
685.69	3121.72
685.87	3347.00
686.06	2044.90
686.24	2173.92
686.43	2822.72
686.61	3307.06
686.80	2092.41
686.99	2125.79
687.17	2982.46
687.36	3168.00
687.54	1999.02
687.73	2005.99
687.91	3314.02
688.10	3110.25
688.28	2071.93
688.47	1990.83
688.66	2854.87
688.84	3066.83
689.03	1910.96
689.21	1873.28
689.40	2844.01
689.58	2972.83
689.77	2378.10
689.95	2108.38
690.14	3096.12
690.32	3351.09
690.51	1945.57
690.69	1997.18
690.88	2962.59
691.06	3342.90
691.25	2064.76
691.43	2345.33
691.62	2788.31
691.80	3127.66
691.99	2142.38
692.18	2079.51
692.36	3385.91
692.55	3114.35
692.73	1930.62
692.92	2018.89
693.10	3199.13
693.29	3140.15
693.47	2214.26
693.66	2135.42
693.84	2619.76
694.03	2775.20
694.21	2196.24
694.40	1965.23
694.58	2689.19
694.77	2898.69
694.95	1965.23
695.14	2008.03
695.32	3211.01
695.50	3166.57
695.69	2021.35
695.87	2278.98
696.06	2989.83
696.24	3089.36
696.43	2216.72
696.61	2000.66
696.80	2916.92
696.98	3108.82
697.17	1924.48
697.35	2425.61
697.54	2966.07
697.72	3169.64
697.91	2132.55
698.09	2208.12
698.28	2669.12
698.46	3020.55
698.65	2085.24
698.83	2201.16
699.01	2726.26
699.20	3595.82
699.38	2096.51
699.57	2270.79
699.75	2693.69
699.94	2925.93
700.12	2072.75
700.31	2127.63
700.49	3108.82
700.67	3352.73
700.86	2256.45
701.04	1975.06
701.23	2975.08
701.41	3126.43
701.60	2050.22
701.78	1992.67
701.97	2883.34
702.15	3238.66
702.33	2084.42
702.52	2078.07
702.70	2979.38
702.89	3158.99
703.07	2318.92
703.26	2027.49
703.44	2467.19
703.62	3098.58
703.81	2026.26
703.99	1957.04
704.18	2749.81
704.36	2799.57
704.54	2004.55
704.73	2069.47
704.91	2722.77
705.10	3123.97
705.28	2014.79
705.46	2119.65
705.65	3202.20
705.83	3313.41
706.02	2188.25
706.20	2101.01
706.38	2966.28
706.57	2907.09
706.75	2232.70
706.94	2316.25
707.12	2583.31
707.30	3128.89
707.49	1976.09
707.67	1989.19
707.86	3050.45
708.04	3131.34
708.22	2240.07
708.41	2085.04
708.59	2933.51
708.78	3319.76
708.96	2257.89
709.14	1911.37
709.33	3091.82
709.51	3169.85
709.69	2125.59
709.88	1996.56
710.06	2867.57
710.24	2959.72
710.43	1926.93
710.61	1969.74
710.80	2926.34
710.98	2859.78
711.16	2101.22
711.35	2115.76
711.53	3198.11
711.71	2727.69
711.90	2085.65
712.08	1957.65
712.26	3081.37
712.45	3047.79
712.63	1864.88
712.81	2104.29
713.00	2829.47
713.18	3200.16
713.36	2151.80
713.55	2160.20
713.73	3033.25
713.91	2887.23
714.10	2049.40
714.28	1952.74
714.46	3124.38
714.65	3359.69
714.83	2039.37
715.01	1920.18
715.20	3164.93
715.38	2920.20
715.56	2012.33
715.75	2213.04
715.93	3181.52
716.11	2871.25
716.30	2022.78
716.48	1915.47
716.66	2913.44
716.85	3110.86
717.03	1855.05
717.21	2221.64
717.40	2764.55
717.58	2964.43
717.76	2221.43
717.94	2007.01
718.13	2822.51
718.31	3015.02
718.49	2113.50
718.68	1936.35
718.86	3308.49
719.04	2902.18
719.23	2342.06
719.41	2132.55
719.59	2602.35
719.77	3215.93
719.96	1966.25
720.14	1940.86
720.32	3089.98
720.51	3084.04
720.69	1922.02
720.87	2227.99
721.05	2907.09
721.24	3496.29
721.42	2001.68
721.60	2337.14
721.78	3202.00
721.97	3429.53
722.15	1952.33
722.33	2189.69
722.51	2917.13
722.70	3259.75
722.88	1974.45
723.06	2169.00
723.25	2809.81
723.43	2992.90
723.61	2098.14
723.79	1834.78
723.98	2736.91
724.16	2905.66
724.34	2060.67
724.52	2162.04
724.71	2864.49
724.89	3078.71
725.07	2244.57
725.25	2032.20
725.43	2847.91
725.62	2850.77
725.80	2105.11
725.98	1923.66
726.16	2958.91
726.35	3091.20
726.53	2343.90
726.71	2004.35
726.89	2855.48
727.08	3163.91
727.26	2091.80
727.44	2037.32
727.62	2756.36
727.80	3311.57
727.99	1982.43
728.17	2083.81
728.35	2649.25
728.53	3119.67
728.71	2313.80
728.90	2030.97
729.08	3009.29
729.26	3069.91
729.44	1981.41
729.63	2330.18
729.81	2818.62
729.99	3117.83
730.17	1861.19
730.35	2123.13
730.53	3137.28
730.72	3044.92
730.90	2050.43
731.08	2158.35
731.26	3193.81
731.44	3221.66
731.63	2068.45
731.81	1992.47
731.99	3205.48
732.17	3285.97
732.35	2051.04
732.54	2235.15
732.72	2721.14
732.90	2925.11
733.08	2216.31
733.26	2201.36
733.44	3175.17
733.63	2928.60
733.81	2119.65
733.99	1982.43
734.17	3370.96
734.35	3175.99
734.53	2114.53
734.72	2104.08
734.90	3038.57
735.08	3066.01
735.26	1894.17
735.44	2304.58
735.62	3281.46
735.80	3316.07
735.99	1963.59
736.17	2115.35
736.35	3339.62
736.53	2919.17
736.71	2164.91
736.89	1909.94
737.07	2873.30
737.26	3142.40
737.44	1805.69
737.62	1912.80
737.80	2892.96
737.98	2703.11
738.16	2149.14
738.34	1985.10
738.53	2733.42
738.71	3038.78
738.89	2047.15
739.07	2098.76
739.25	3152.85
739.43	2942.11
739.61	1819.83
739.79	2217.54
739.97	3209.37
740.16	3258.11
740.34	2162.45
740.52	2308.27
740.70	3114.14
740.88	3282.48
741.06	1997.38
741.24	1961.54
741.42	3244.39
741.60	3016.04
741.79	1977.31
741.97	1853.00
742.15	3029.76
742.33	3367.48
742.51	1970.35
742.69	2064.76
742.87	2849.34
743.05	3123.15
743.23	1966.66
743.41	2264.64
743.59	3303.99
743.77	2950.51
743.96	1906.25
744.14	2272.84
744.32	2722.98
744.50	3221.25
744.68	1945.37
744.86	2046.94
745.04	2959.72
745.22	3004.98
745.40	1938.81
745.58	1922.02
745.76	3252.38
745.94	3194.01
746.12	2078.89
746.30	2002.71
746.49	2683.86
746.67	3386.73
746.85	2169.62
747.03	2052.47
747.21	2792.20
747.39	3005.19
747.57	2140.13
747.75	2138.08
747.93	3086.70
748.11	2901.36
748.29	2151.80
748.47	2408.62
748.65	2962.39
748.83	2924.09
749.01	2141.77
749.19	1902.56
749.37	3198.52
749.55	2985.32
749.73	2012.95
749.91	2086.27
750.09	3256.48
750.27	3054.75
750.45	1898.67
750.63	2080.33
750.81	2593.14
750.99	3241.73
751.17	1981.20
751.35	1921.20
751.53	2903.00
751.71	3075.64
751.89	2188.66
752.07	2043.87
752.25	2269.56
752.44	3086.49
752.62	2101.22
752.80	1929.80
752.98	2584.13
753.16	3060.89
753.34	2325.47
753.51	2088.52
753.69	3189.51
753.87	2972.01
754.05	1916.49
754.23	2050.63
754.41	2742.43
754.59	3032.02
754.77	2384.04
754.95	2067.63
755.13	2926.75
755.31	2932.90
755.49	2175.97
755.67	2037.73
755.85	2979.59
756.03	3227.39
756.21	1780.09
756.39	2084.01
756.57	3141.38
756.75	3312.79
756.93	2003.12
757.11	1978.75
757.29	3126.84
757.47	3252.99
757.65	1908.91
757.83	2200.54
758.01	2835.82
758.19	2986.14
758.37	2131.32
758.55	2091.80
758.73	2780.94
758.91	3164.93
759.09	2156.51
759.27	2405.75
759.44	3300.71
759.62	2824.35
759.80	2209.14
759.98	1929.80
760.16	3030.58
760.34	3313.20
760.52	1799.96
760.70	2174.53
760.88	3206.50
761.06	3109.84
761.24	2345.95
761.42	1988.17
761.60	3105.74
761.78	3184.80
761.95	1919.97
762.13	2213.65
762.31	3200.98
762.49	2968.94
762.67	2135.83
762.85	2251.74
763.03	3138.92
763.21	3093.46
763.39	2007.21
763.57	1978.54
763.75	2928.60
763.92	3161.86
764.10	1984.48
764.28	2106.95
764.46	3374.85
764.64	2914.46
764.82	2311.34
765.00	1893.35
765.18	3176.40
765.36	3050.65
765.54	1908.50
765.71	2148.52
765.89	2725.85
766.07	3147.93
766.25	2018.48
766.43	2134.39
766.61	2904.63
766.79	3373.62
766.97	2311.95
767.14	2001.07
767.32	3035.50
767.50	3023.21
767.68	2061.49
767.86	2191.33
768.04	2875.55
768.22	3320.17
768.40	1927.75
768.57	2217.34
768.75	3405.16
768.93	3165.14
769.11	2203.82
769.29	1920.38
769.47	2830.50
769.65	3391.44
769.82	2453.06
770.00	2058.82
770.18	2838.89
770.36	3020.75
770.54	1941.06
770.72	2034.04
770.89	3211.42
771.07	2971.60
771.25	2111.05
771.43	1970.15
771.61	2719.09
771.79	3032.43
771.96	2028.10
772.14	2163.68
772.32	2835.62
772.50	3165.95
772.68	2143.61
772.86	1964.82
773.03	3128.27
773.21	3136.67
773.39	1954.58
773.57	1820.44
773.75	2832.75
773.92	2976.11
774.10	1887.41
774.28	1890.89
774.46	3317.71
774.64	3214.49
774.82	2216.72
774.99	2023.60
775.17	2567.54
775.35	2935.35
775.53	2057.18
775.71	2050.63
775.88	2890.30
776.06	3114.55
776.24	2035.89
776.42	1999.84
776.59	2874.53
776.77	2915.90
776.95	2108.38
777.13	1984.89
777.31	3024.03
777.48	3079.94
777.66	2174.33
777.84	1826.38
778.02	2930.23
778.19	3357.44
778.37	2226.14
778.55	2100.40
778.73	2698.81
778.91	3129.30
779.08	1966.05
779.26	1931.23
779.44	2958.29
779.62	3085.26
779.79	1983.66
779.97	1827.20
780.15	3178.86
780.33	3106.15
780.50	2058.41
780.68	2115.76
780.86	3066.42
781.04	3101.85
781.21	2135.83
781.39	2112.89
781.57	3410.28
781.75	3049.63
781.92	1967.89
782.10	2320.76
782.28	3108.61
782.46	3067.65
782.63	2007.83
782.81	2217.54
782.99	2787.90
783.16	3116.80
783.34	1953.15
783.52	2299.46
783.70	2894.80
783.87	3146.70
784.05	1945.57
784.23	2080.94
784.41	3103.70
784.58	3142.61
784.76	2123.74
784.94	2061.49
785.11	2779.91
785.29	3140.76
785.47	2051.86
785.65	2352.30
785.82	3302.76
786.00	3120.49
786.18	2159.17
786.35	2272.63
786.53	3010.92
786.71	2913.24
786.88	1947.41
787.06	1908.09
787.24	3034.68
787.41	2947.85
787.59	2223.48
787.77	2104.90
787.95	3088.75
788.12	3087.52
788.30	2223.07
788.48	2188.25
788.65	3012.97
788.83	2698.61
789.01	2004.35
789.18	2149.14
789.36	3206.30
789.54	2785.44
789.71	1943.93
789.89	1956.63
790.07	3093.87
790.24	2885.59
790.42	1986.32
790.60	2106.54
790.77	3084.65
790.95	2816.16
791.13	1984.89
791.30	2105.52
791.48	2841.15
791.66	2901.77
791.83	2051.04
792.01	2032.40
792.18	2786.06
792.36	2850.36
792.54	1862.42
792.71	2085.86
792.89	2812.89
793.07	2962.18
793.24	2284.71
793.42	1960.73
793.60	3036.93
793.77	2886.41
793.95	1881.06
794.12	2273.04
794.30	3248.08
794.48	3121.92
794.65	1850.54
794.83	2250.51
795.01	3081.78
795.18	2992.49
795.36	2192.56
795.53	2008.44
795.71	2833.98
795.89	3091.82
796.06	2056.98
796.24	2169.41
796.41	3093.66
796.59	2850.16
796.77	2053.70
796.94	1963.80
797.12	2797.73
797.29	8965.60
797.47	2016.43
797.65	2079.10
797.82	2972.22
798.00	3090.18
798.17	2059.03
798.35	2077.87
798.53	3447.55
798.70	3003.96
798.88	2081.97
799.05	1981.20
799.23	3025.05
799.40	3166.16
799.58	1864.47
799.76	1931.85
799.93	2864.90
800.11	3229.65
800.28	2136.85
800.46	1981.00
800.63	2734.45
800.81	3241.93
800.99	1885.16
801.16	2370.52
801.34	3101.85
801.51	2947.64
801.69	1945.98
801.86	2007.83
802.04	2350.25
802.21	2864.29
802.39	1908.71
802.57	2600.72
802.74	2546.24
802.92	2853.84
803.09	1881.88
803.27	1955.40
803.44	2910.57
803.62	2735.27
803.79	2007.01
803.97	2040.39
804.14	3080.96
804.32	3197.29
804.49	2029.74
804.67	1987.14
804.84	2945.80
805.02	2977.95
805.20	2047.15
805.37	1961.95
805.55	3100.62
805.72	2991.88
805.90	2086.47
806.07	2020.32
806.25	2355.16
806.42	3188.48
806.60	1881.06
806.77	1943.11
806.95	3075.43
807.12	3281.67
807.30	2117.39
807.47	2077.46
807.65	2978.77
807.82	3475.81
808.00	2017.66
808.17	2457.15
808.35	2999.86
808.52	2959.72
808.70	2031.59
808.87	1965.23
809.05	2703.11
809.22	3077.48
809.40	1966.05
809.57	2180.06
809.75	3198.31
809.92	3218.79
810.09	2041.82
810.27	1989.40
810.44	2915.28
810.62	3293.75
810.79	2105.52
810.97	2002.50
811.14	3221.86
811.32	3031.20
811.49	2286.76
811.67	2136.85
811.84	3267.94
812.02	2811.86
812.19	2181.70
812.36	2294.75
812.54	3240.30
812.71	3281.26
812.89	2047.15
813.06	2108.38
813.24	3035.70
813.41	2860.40
813.59	2065.38
813.76	1864.06
813.93	2875.35
814.11	3179.68
814.28	2116.78
814.46	2288.40
814.63	2965.87
814.81	3176.19
814.98	2041.62
815.16	1972.19
815.33	2892.35
815.50	3234.15
815.68	1930.82
815.85	1961.95
816.03	3048.20
816.20	3350.27
816.37	2003.53
816.55	2068.45
816.72	3384.47
816.90	3275.11
817.07	1930.62
817.24	2029.74
817.42	2965.25
817.59	2972.83
817.77	2075.41
817.94	1880.24
818.11	3357.85
818.29	3141.79
818.46	2088.93
818.64	1782.14
818.81	2778.89
818.98	2982.05
819.16	2036.09
819.33	1997.18
819.51	3160.22
819.68	3133.39
819.85	2221.84
820.03	1993.90
820.20	3275.11
820.38	3242.55
820.55	1946.18
820.72	2147.30
820.90	2919.38
821.07	3022.80
821.24	2035.48
821.42	1993.90
821.59	3076.46
821.76	3264.67
821.94	1877.37
822.11	2309.49
822.29	3112.91
822.46	2712.33
822.63	1997.59
822.81	2232.08
822.98	2977.75
823.15	3200.16
823.33	1989.40
823.50	2012.13
823.67	3361.74
823.85	3070.31
824.02	1865.49
824.19	1883.11
824.37	2824.76
824.54	3033.86
824.71	1986.73
824.89	2071.32
825.06	3063.15
825.23	3432.19
825.41	1955.20
825.58	1853.62
825.75	2950.10
825.93	2960.54
826.10	2034.25
826.27	2127.84
826.45	3026.90
826.62	2976.52
826.79	1982.64
826.97	1968.71
827.14	2841.97
827.31	3266.10
827.48	1979.77
827.66	2265.87
827.83	2921.02
828.00	3152.85
828.18	2110.84
828.35	2035.68
828.52	2899.31
828.70	3090.59
828.87	1817.98
829.04	2089.75
829.21	2790.77
829.39	3130.53
829.56	1935.13
829.73	1829.25
829.91	2839.10
830.08	2914.46
830.25	1884.54
830.42	1934.92
830.60	3349.86
830.77	3589.68
830.94	1777.23
831.11	1650.25
831.29	2582.28
831.46	3345.97
831.63	1827.20
831.81	1814.09
831.98	3059.05
832.15	3520.05
832.32	1751.01
832.50	1892.12
832.67	3096.94
832.84	3012.97
833.01	1713.74
833.19	1854.44
833.36	3174.56
833.53	3353.75
833.70	1740.77
833.88	2193.17
834.05	3686.55
834.22	3064.79
834.39	1703.50
834.57	1707.39
834.74	2822.72
834.91	2863.06
835.08	1826.79
835.25	1939.22
835.43	3069.29
835.60	3286.79
835.77	1930.01
835.94	1827.81
836.12	3221.25
836.29	3279.62
836.46	1896.42
836.63	1777.02
836.80	3288.63
836.98	3306.04
837.15	1929.39
837.32	1885.77
837.49	2874.94
837.66	3260.98
837.84	1847.68
838.01	1975.27
838.18	3502.64
838.35	3396.97
838.52	1768.63
838.70	1897.24
838.87	2858.35
839.04	3651.12
839.21	1728.69
839.38	1888.02
839.56	3074.00
839.73	3121.10
839.90	1737.09
840.07	1705.14
840.24	2989.42
840.42	3412.53
840.59	1719.68
840.76	2071.93
840.93	2690.21
841.10	3324.06
841.27	1872.46
841.45	2088.93
841.62	3018.09
841.79	3146.09
841.96	1866.93
842.13	1885.97
842.30	2918.15
842.48	3821.92
842.65	1909.53
842.82	1691.01
842.99	2849.34
843.16	3495.27
843.33	1906.45
843.50	1813.48
843.68	2504.46
843.85	3340.65
844.02	1715.58
844.19	2263.62
844.36	3267.12
844.53	3102.88
844.70	1969.94
844.88	2002.30
845.05	2948.26
845.22	3210.19
845.39	1741.59
845.56	2035.07
845.73	3145.68
845.90	3362.56
846.07	1771.70
846.25	1748.76
846.42	2743.66
846.59	3352.32
846.76	1886.59
846.93	1685.89
847.10	3159.40
847.27	3500.59
847.44	1866.72
847.61	1742.82
847.79	2652.53
847.96	3520.05
848.13	1673.19
848.30	1985.51
848.47	2660.52
848.64	2821.08
848.81	1755.93
848.98	1906.66
849.15	3566.95
849.32	3393.48
849.49	1793.82
849.67	1842.35
849.84	2941.50
850.01	3166.57
850.18	1823.92
850.35	1746.30
850.52	2726.67
850.69	3837.69
850.86	1841.53
851.03	2265.46
851.20	3220.02
851.37	3098.17
851.54	1847.88
851.71	1790.13
851.89	3209.99
852.06	3382.83
852.23	1887.00
852.40	1851.77
852.57	2915.90
852.74	3553.02
852.91	1782.14
853.08	1904.41
853.25	3420.11
853.42	3453.28
853.59	1619.53
853.76	1798.73
853.93	3289.45
854.10	3490.97
854.27	1679.74
854.44	1827.20
854.61	3061.92
854.78	3217.56
854.95	1935.54
855.12	1914.85
855.29	3063.15
855.46	3452.26
855.63	1751.01
855.80	1847.68
855.97	3031.61
856.14	3494.65
856.31	1783.37
856.49	2026.47
856.66	3157.35
856.83	3260.16
857.00	1919.56
857.17	1918.13
857.34	2919.99
857.51	3504.89
857.68	1739.54
857.85	1796.68
858.02	3027.72
858.19	3418.88
858.36	1877.78
858.53	1867.34
858.70	3547.49
858.87	3087.11
859.04	1740.98
859.21	1823.51
859.37	3121.31
859.54	3456.15
859.71	2032.61
859.88	2028.10
860.05	3280.85
860.22	3271.22
860.39	1727.46
860.56	1939.63
860.73	3043.69
860.90	3430.14
861.07	1834.37
861.24	1626.09
861.41	2845.45
861.58	3162.68
861.75	1739.34
861.92	1815.73
862.09	3029.97
862.26	3181.93
862.43	1934.31
862.60	2039.78
862.77	3142.40
862.94	3485.23
863.11	1787.06
863.28	1805.08
863.45	3226.98
863.62	2948.46
863.78	1839.49
863.95	1883.93
864.12	3045.33
864.29	3361.33
864.46	2091.80
864.63	1793.41
864.80	3269.99
864.97	3204.66
865.14	2010.29
865.31	1968.92
865.48	2948.05
865.65	3304.60
865.82	1692.85
865.99	1996.16
866.15	3514.52
866.32	3398.40
866.49	1720.09
866.66	1742.82
866.83	3336.55
867.00	3196.67
867.17	1674.21
867.34	1917.10
867.51	3134.62
867.68	3354.78
867.84	2012.13
868.01	2005.99
868.18	3119.88
868.35	3576.98
868.52	1709.23
868.69	1821.05
868.86	3040.82
869.03	3480.73
869.20	1705.14
869.36	1863.24
869.53	3245.62
869.70	3622.04
869.87	1871.84
870.04	1928.57
870.21	2914.05
870.38	3293.13
870.55	1737.29
870.71	1875.53
870.88	3236.00
871.05	3300.71
871.22	1967.07
871.39	1885.77
871.56	3516.77
871.73	2977.75
871.89	1805.90
872.06	1928.16
872.23	2957.06
872.40	3217.56
872.57	1990.42
872.74	1838.46
872.91	3596.85
873.07	3111.89
873.24	1779.89
873.41	1695.51
873.58	2949.28
873.75	3480.52
873.92	1955.81
874.08	2012.54
874.25	2426.64
874.42	3081.78
874.59	1925.71
874.76	1796.07
874.93	2831.52
875.09	3260.16
875.26	1884.13
875.43	2009.06
875.60	2941.29
875.77	3209.78
875.93	1774.97
876.10	1817.16
876.27	2963.62
876.44	3061.51
876.61	1916.08
876.77	1672.37
876.94	2829.06
877.11	3535.82
877.28	1803.65
877.45	1735.86
877.61	3425.64
877.78	3169.44
877.95	1765.14
878.12	1703.50
878.29	3155.51
878.45	3658.70
878.62	1685.27
878.79	2083.19
878.96	3037.75
879.13	3075.64
879.29	1901.95
879.46	1824.54
879.63	3147.73
879.80	3493.02
879.96	1696.33
880.13	1924.89
880.30	2846.88
880.47	3294.77
880.63	1958.27
880.80	2179.04
880.97	2995.36
881.14	3187.05
881.30	2056.78
881.47	1965.03
881.64	3341.47
881.81	3430.96
881.97	1909.94
882.14	2091.39
882.31	3138.10
882.48	3400.65
882.64	1967.69
882.81	1990.22
882.98	3084.65
883.15	2984.50
883.31	1865.29
883.48	2090.57
883.65	2999.25
883.82	3528.65
883.98	1872.87
884.15	1959.09
884.32	3126.84
884.48	3398.81
884.65	1884.54
884.82	2033.02
884.99	3263.64
885.15	3262.82
885.32	1788.49
885.49	1997.59
885.65	3054.34
>>>>>End Processed Spectral Data<<<<<
