SpectraSuite Data File
++++++++++++++++++++++++++++++++++++
Date: Fri Nov 20 23:25:28 GMT 2020
User: Jason
Dark Spectrum Present: No
Reference Spectrum Present: No
Number of Sampled Component Spectra: 1
Spectrometers: USB4C01509
Integration Time (usec): 1000000 (USB4C01509)
Spectra Averaged: 10 (USB4C01509)
Boxcar Smoothing: 0 (USB4C01509)
Correct for Electrical Dark: No (USB4C01509)
Strobe/Lamp Enabled: No (USB4C01509)
Correct for Detector Non-linearity: No (USB4C01509)
Correct for Stray Light: No (USB4C01509)
Number of Pixels in Processed Spectrum: 3648
>>>>>Begin Processed Spectral Data<<<<<
179.08	1206.66
179.29	1206.66
179.50	1206.66
179.72	1199.09
179.93	1198.47
180.15	2513.06
180.36	2067.01
180.58	3445.09
180.79	3321.19
181.00	1968.30
181.22	2022.98
181.43	3373.41
181.65	3598.90
181.86	2184.36
182.08	1806.51
182.29	3619.78
182.50	3201.18
182.72	1890.68
182.93	2372.37
183.15	3324.47
183.36	3580.67
183.57	1812.86
183.79	2140.13
184.00	3208.55
184.22	3370.96
184.43	1974.65
184.65	2193.58
184.86	3187.05
185.07	3216.95
185.29	1789.11
185.50	1932.67
185.72	3439.56
185.93	3394.92
186.14	1994.72
186.36	1973.83
186.57	3056.39
186.79	3923.70
187.00	2061.08
187.21	2178.01
187.43	3561.62
187.64	3305.01
187.86	1964.82
188.07	2369.91
188.28	3113.73
188.50	3696.38
188.71	2285.74
188.93	1962.57
189.14	2938.84
189.35	2867.77
189.57	1979.36
189.78	2000.46
190.00	3077.07
190.21	3305.63
190.42	1905.84
190.64	1801.60
190.85	3310.54
191.07	3509.40
191.28	1901.13
191.49	2186.62
191.71	3231.90
191.92	3341.47
192.14	1822.08
192.35	2240.89
192.56	3262.62
192.78	3469.67
192.99	1961.13
193.20	2275.29
193.42	3411.51
193.63	3433.62
193.85	2231.26
194.06	1951.71
194.27	2931.87
194.49	3712.56
194.70	2124.56
194.91	1966.05
195.13	3059.87
195.34	3123.56
195.56	1982.64
195.77	2099.99
195.98	3479.91
196.20	3241.12
196.41	2032.20
196.62	2110.64
196.84	2940.88
197.05	3300.92
197.27	1893.76
197.48	2086.88
197.69	2804.69
197.91	3025.87
198.12	1991.24
198.33	1706.57
198.55	3910.19
198.76	3516.16
198.97	1871.23
199.19	1982.23
199.40	2999.86
199.61	3486.26
199.83	1939.43
200.04	1886.38
200.26	3094.89
200.47	3613.85
200.68	1948.44
200.90	1901.13
201.11	3415.19
201.32	3562.24
201.54	1758.18
201.75	2021.35
201.96	2838.08
202.18	2920.81
202.39	2210.37
202.60	1956.42
202.82	2742.84
203.03	3190.12
203.24	2101.42
203.46	2223.27
203.67	3166.57
203.88	3460.04
204.10	1966.87
204.31	1898.26
204.52	3424.00
204.74	3463.52
204.95	2046.13
205.16	2109.20
205.38	3397.38
205.59	3690.23
205.80	1946.39
206.02	1851.57
206.23	3843.01
206.44	3149.78
206.66	2037.52
206.87	1966.25
207.08	3088.75
207.30	3747.17
207.51	2139.10
207.72	2253.58
207.94	3270.20
208.15	3485.85
208.36	2080.74
208.58	2058.41
208.79	3294.98
209.00	3535.41
209.22	2052.27
209.43	2020.73
209.64	3157.97
209.86	3093.87
210.07	2096.51
210.28	1873.69
210.50	3208.14
210.71	3671.80
210.92	2014.79
211.13	1989.81
211.35	2752.47
211.56	3313.61
211.77	2082.58
211.99	1913.83
212.20	3014.00
212.41	3025.05
212.63	1869.80
212.84	2025.03
213.05	3725.66
213.27	3493.02
213.48	1889.66
213.69	2044.90
213.90	2396.12
214.12	3263.03
214.33	1859.56
214.54	2178.42
214.76	2891.73
214.97	3518.41
215.18	1834.78
215.40	2582.08
215.61	3412.74
215.82	3407.82
216.03	1871.43
216.25	2026.26
216.46	2851.39
216.67	3669.14
216.89	1871.23
217.10	1858.53
217.31	2909.34
217.52	3189.71
217.74	1976.49
217.95	2020.94
218.16	2897.88
218.38	3609.95
218.59	1867.95
218.80	1989.60
219.01	3128.07
219.23	3590.09
219.44	1838.05
219.65	1969.33
219.87	2549.72
220.08	3350.27
220.29	1872.87
220.50	2116.17
220.72	3459.22
220.93	3212.65
221.14	1911.98
221.35	2081.76
221.57	2937.81
221.78	3637.81
221.99	1923.25
222.21	1855.05
222.42	3042.67
222.63	3511.65
222.84	1905.02
223.06	2154.87
223.27	3240.09
223.48	4118.47
223.69	1783.58
223.91	2107.77
224.12	3101.03
224.33	3603.40
224.54	2189.48
224.76	1990.83
224.97	3211.22
225.18	3381.81
225.39	2044.69
225.61	2013.77
225.82	3208.76
226.03	3706.21
226.24	1833.96
226.46	2282.87
226.67	2526.17
226.88	3314.23
227.09	2143.81
227.31	2074.18
227.52	3269.58
227.73	3455.95
227.94	1989.19
228.16	2043.26
228.37	3001.30
228.58	3573.71
228.79	2057.80
229.01	2038.55
229.22	3044.31
229.43	3345.56
229.64	2235.56
229.86	2071.32
230.07	3266.92
230.28	3768.88
230.49	2171.26
230.71	1961.95
230.92	3215.31
231.13	3780.55
231.34	1959.09
231.55	2085.86
231.77	2800.60
231.98	3570.22
232.19	1876.55
232.40	1957.24
232.62	2777.86
232.83	3069.91
233.04	2135.83
233.25	2099.17
233.46	2932.28
233.68	3515.34
233.89	2280.21
234.10	2159.58
234.31	3123.56
234.53	3722.18
234.74	1925.91
234.95	2079.51
235.16	2977.54
235.37	3503.46
235.59	1713.13
235.80	2175.76
236.01	2746.33
236.22	3362.97
236.44	2047.76
236.65	1839.49
236.86	2808.17
237.07	3421.54
237.28	1957.86
237.50	2008.03
237.71	2666.25
237.92	5279.66
238.13	1849.73
238.34	2122.31
238.56	2573.07
238.77	3683.68
238.98	1889.66
239.19	1948.44
239.40	3098.17
239.62	3955.65
239.83	2149.96
240.04	2078.69
240.25	3024.65
240.46	3253.40
240.68	1864.06
240.89	1889.66
241.10	3301.33
241.31	3314.84
241.52	1791.77
241.73	1817.98
241.95	3193.19
242.16	3763.35
242.37	1903.59
242.58	2045.72
242.79	3113.32
243.01	3247.26
243.22	2114.94
243.43	1739.54
243.64	3097.14
243.85	3540.73
244.06	1910.75
244.28	1888.23
244.49	3295.18
244.70	3800.01
244.91	2018.27
245.12	2032.40
245.34	3064.99
245.55	3288.42
245.76	1877.17
245.97	1880.24
246.18	3180.29
246.39	3253.81
246.61	2026.67
246.82	2002.09
247.03	3079.33
247.24	3213.06
247.45	1899.29
247.66	2014.79
247.88	2611.36
248.09	3364.20
248.30	1874.71
248.51	1805.69
248.72	3164.52
248.93	3231.49
249.15	1894.58
249.36	2294.54
249.57	3271.22
249.78	3546.88
249.99	2032.20
250.20	1862.42
250.41	3086.90
250.63	3308.70
250.84	1751.42
251.05	1973.22
251.26	2957.88
251.47	3101.03
251.68	2151.60
251.89	2215.70
252.11	2481.11
252.32	3204.05
252.53	1856.69
252.74	2028.72
252.95	3338.19
253.16	2733.83
253.37	1885.16
253.59	2016.84
253.80	3281.26
254.01	3328.56
254.22	1931.03
254.43	2315.64
254.64	3082.60
254.85	3403.72
255.07	1892.12
255.28	1898.88
255.49	2849.54
255.70	3550.97
255.91	1834.37
256.12	1862.83
256.33	3212.44
256.54	3625.52
256.76	1885.77
256.97	1895.80
257.18	2885.79
257.39	3269.79
257.60	2181.91
257.81	1941.88
258.02	3246.85
258.23	3514.72
258.45	2197.88
258.66	1918.13
258.87	3696.17
259.08	3620.81
259.29	1938.40
259.50	1994.31
259.71	3364.61
259.92	3724.03
260.13	1831.91
260.35	2002.71
260.56	3018.30
260.77	3619.38
260.98	1899.08
261.19	1943.93
261.40	2916.51
261.61	2684.68
261.82	1818.80
262.03	1973.01
262.25	3157.97
262.46	3594.39
262.67	2101.42
262.88	2034.66
263.09	3245.62
263.30	2951.33
263.51	1748.97
263.72	2085.04
263.93	3421.95
264.14	3753.11
264.36	1876.55
264.57	2120.88
264.78	3597.67
264.99	3436.29
265.20	1899.70
265.41	2204.84
265.62	2874.12
265.83	3641.90
266.04	2094.66
266.25	1939.02
266.46	3468.85
266.67	3335.73
266.89	1743.44
267.10	1863.04
267.31	3266.10
267.52	3200.36
267.73	2001.68
267.94	2034.45
268.15	3027.72
268.36	3579.23
268.57	1829.86
268.78	1903.18
268.99	2842.79
269.20	2884.36
269.41	1927.34
269.63	1853.00
269.84	2878.01
270.05	3554.04
270.26	1956.42
270.47	1954.79
270.68	3227.80
270.89	3644.16
271.10	1880.04
271.31	1960.73
271.52	2920.20
271.73	3254.63
271.94	1937.99
272.15	1990.63
272.36	2859.58
272.57	3620.40
272.78	2111.66
273.00	1912.60
273.21	2930.03
273.42	3420.31
273.63	1916.90
273.84	2028.31
274.05	2993.93
274.26	3295.59
274.47	2144.63
274.68	2336.53
274.89	3154.69
275.10	3206.71
275.31	2226.14
275.52	2247.65
275.73	3104.72
275.94	3238.45
276.15	2217.95
276.36	2046.94
276.57	2915.49
276.78	2966.28
276.99	2110.84
277.20	2056.78
277.41	3118.85
277.63	3107.59
277.84	2079.10
278.05	1986.73
278.26	2927.57
278.47	3031.81
278.68	2247.24
278.89	1881.06
279.10	3042.67
279.31	3109.43
279.52	2109.20
279.73	2079.71
279.94	3092.84
280.15	3541.76
280.36	2139.51
280.57	2276.73
280.78	3146.09
280.99	3140.15
281.20	2240.27
281.41	2024.83
281.62	2906.68
281.83	3152.03
282.04	2042.64
282.25	2251.33
282.46	3143.02
282.67	2729.12
282.88	2067.42
283.09	2072.34
283.30	3214.90
283.51	3218.18
283.72	2250.31
283.93	2187.85
284.14	3159.40
284.35	3039.19
284.56	1987.14
284.77	2100.19
284.98	2796.71
285.19	3209.17
285.40	2205.05
285.61	2179.04
285.82	3008.06
286.03	3214.08
286.24	1989.81
286.45	2030.97
286.66	2779.30
286.87	3293.95
287.08	2164.09
287.29	1979.98
287.50	3292.52
287.71	3222.48
287.92	2042.23
288.13	2066.81
288.34	2831.11
288.55	3086.70
288.76	1990.01
288.97	2169.00
289.18	2927.37
289.39	3070.72
289.60	1886.79
289.81	2192.96
290.02	3013.38
290.23	2984.91
290.44	2162.86
290.65	2140.54
290.86	2711.10
291.07	3169.03
291.28	2323.63
291.49	2011.31
291.70	3007.44
291.91	2655.19
292.12	2024.83
292.33	1954.79
292.54	3427.89
292.75	3261.39
292.96	2173.71
293.17	2214.47
293.38	3154.08
293.58	3290.88
293.79	1923.86
294.00	2266.49
294.21	2770.90
294.42	3438.13
294.63	2048.79
294.84	2076.23
295.05	3094.48
295.26	3475.20
295.47	1921.40
295.68	1951.51
295.89	2915.49
296.10	3298.46
296.31	2036.30
296.52	2243.14
296.73	2818.82
296.94	3132.37
297.15	2119.44
297.36	2284.92
297.57	2707.21
297.78	3115.17
297.98	2137.06
298.19	2452.65
298.40	3122.33
298.61	2987.37
298.82	2120.26
299.03	2426.23
299.24	3123.36
299.45	3581.49
299.66	1960.52
299.87	2047.15
300.08	2884.77
300.29	3121.31
300.50	1995.54
300.71	2263.01
300.92	3043.69
301.13	2983.89
301.33	2051.25
301.54	2276.52
301.75	2833.16
301.96	3174.76
302.17	2040.39
302.38	2005.99
302.59	3061.71
302.80	3283.71
303.01	2407.39
303.22	2360.08
303.43	3026.90
303.64	3179.06
303.85	2155.49
304.05	2151.80
304.26	3076.25
304.47	3031.61
304.68	2037.32
304.89	2152.62
305.10	2726.05
305.31	3075.03
305.52	2093.64
305.73	2050.22
305.94	2775.00
306.15	3141.38
306.35	2065.17
306.56	1979.16
306.77	2926.55
306.98	2958.70
307.19	2111.66
307.40	2158.97
307.61	3092.43
307.82	3192.17
308.03	2200.34
308.24	2312.16
308.45	3172.51
308.65	3388.77
308.86	2097.73
309.07	2224.09
309.28	2960.75
309.49	2831.73
309.70	2159.79
309.91	2000.87
310.12	2909.14
310.33	3046.56
310.53	1913.21
310.74	2069.88
310.95	3307.88
311.16	3162.06
311.37	1955.81
311.58	2285.12
311.79	3156.74
312.00	3000.07
312.20	2065.79
312.41	1959.91
312.62	3074.21
312.83	3290.27
313.04	2044.49
313.25	2363.77
313.46	2859.17
313.67	3292.52
313.87	2115.76
314.08	2207.92
314.29	2987.37
314.50	3305.42
314.71	2095.28
314.92	2015.20
315.13	3274.70
315.34	3195.45
315.54	2064.35
315.75	1945.16
315.96	2850.36
316.17	3068.27
316.38	1891.30
316.59	1972.19
316.80	3099.60
317.00	3267.12
317.21	2296.80
317.42	2071.73
317.63	2727.08
317.84	3009.29
318.05	2274.06
318.26	2072.34
318.46	3332.45
318.67	2592.93
318.88	2117.19
319.09	2175.76
319.30	2746.12
319.51	3111.07
319.71	2034.86
319.92	2037.93
320.13	3047.17
320.34	2699.22
320.55	2096.51
320.76	2118.42
320.97	2984.30
321.17	3182.75
321.38	2015.20
321.59	2100.81
321.80	3224.12
322.01	2941.50
322.22	2191.33
322.42	1972.60
322.63	2568.36
322.84	3458.81
323.05	2273.65
323.26	2226.55
323.47	2414.56
323.67	3067.65
323.88	1982.02
324.09	2179.45
324.30	3069.09
324.51	3134.21
324.71	1948.23
324.92	1996.77
325.13	3079.33
325.34	3035.70
325.55	1964.62
325.76	2156.92
325.96	3141.79
326.17	3334.30
326.38	1867.54
326.59	2162.45
326.80	3091.20
327.00	2946.82
327.21	1948.64
327.42	2330.18
327.63	2849.34
327.84	3032.02
328.04	2220.41
328.25	2012.74
328.46	2975.49
328.67	3075.84
328.88	2125.79
329.08	2013.56
329.29	2693.69
329.50	3025.05
329.71	2147.30
329.92	2020.53
330.12	2736.50
330.33	3074.41
330.54	2023.60
330.75	2508.35
330.96	3010.92
331.16	3055.36
331.37	1859.15
331.58	2203.41
331.79	2902.18
332.00	2994.13
332.20	1803.03
332.41	2121.49
332.62	3006.21
332.83	2906.07
333.03	1960.52
333.24	2572.66
333.45	3236.41
333.66	2812.07
333.87	2119.65
334.07	2051.25
334.28	2866.54
334.49	3307.06
334.70	2139.72
334.90	1855.46
335.11	3116.60
335.32	2921.22
335.53	1988.99
335.74	2170.44
335.94	3228.42
336.15	3283.10
336.36	2219.18
336.57	2179.86
336.77	2773.36
336.98	2557.30
337.19	2170.85
337.40	1973.01
337.60	2877.40
337.81	3013.59
338.02	1838.46
338.23	1855.87
338.43	2751.45
338.64	2954.40
338.85	2158.15
339.06	1986.53
339.26	2951.94
339.47	2882.52
339.68	1949.46
339.89	2211.40
340.09	3089.57
340.30	2895.42
340.51	2063.33
340.72	1952.33
340.92	3006.83
341.13	2972.63
341.34	1969.12
341.55	1965.03
341.75	2958.29
341.96	2850.36
342.17	1974.65
342.38	2061.08
342.58	3132.78
342.79	3208.55
343.00	2135.21
343.20	1991.04
343.41	2618.94
343.62	3059.87
343.83	2243.14
344.03	2036.50
344.24	2554.02
344.45	3282.07
344.66	1896.42
344.86	2170.03
345.07	2859.17
345.28	3112.71
345.48	2232.70
345.69	2091.39
345.90	2824.97
346.11	3124.18
346.31	2173.71
346.52	2092.82
346.73	2882.52
346.93	2954.40
347.14	1894.99
347.35	1786.85
347.56	3163.29
347.76	3254.02
347.97	1983.66
348.18	2131.12
348.38	3061.71
348.59	3252.38
348.80	1991.65
349.01	1947.62
349.21	2850.36
349.42	2826.20
349.63	2091.59
349.83	2165.52
350.04	3123.15
350.25	3189.71
350.45	2079.10
350.66	1955.20
350.87	2896.65
351.08	3039.80
351.28	2037.32
351.49	1992.26
351.70	2826.61
351.90	3501.21
352.11	1977.11
352.32	2456.54
352.52	3070.52
352.73	3108.20
352.94	2112.48
353.14	2102.24
353.35	2454.08
353.56	3262.00
353.76	2089.13
353.97	2196.86
354.18	3263.03
354.39	3147.93
354.59	2048.58
354.80	1929.80
355.01	2949.89
355.21	3309.72
355.42	2013.56
355.63	2179.86
355.83	2709.05
356.04	2982.25
356.25	2368.68
356.45	2401.04
356.66	2881.90
356.87	2925.32
357.07	2051.66
357.28	2044.49
357.49	2920.61
357.69	2609.32
357.90	1797.09
358.11	1829.04
358.31	3436.90
358.52	3148.14
358.72	2009.26
358.93	1900.11
359.14	3249.31
359.34	3255.66
359.55	2014.18
359.76	2046.54
359.96	2617.10
360.17	2552.59
360.38	2153.85
360.58	2004.14
360.79	3283.51
361.00	3191.76
361.20	1907.07
361.41	2045.92
361.62	2743.05
361.82	3189.71
362.03	2052.88
362.23	2072.54
362.44	3032.84
362.65	3310.75
362.85	2188.46
363.06	2220.61
363.27	2839.71
363.47	3193.19
363.68	2078.69
363.89	1997.59
364.09	3037.34
364.30	3286.58
364.50	2062.10
364.71	2187.44
364.92	2695.33
365.12	3168.00
365.33	2079.30
365.54	2122.72
365.74	2962.59
365.95	3065.60
366.15	2114.12
366.36	2231.88
366.57	3351.30
366.77	3202.61
366.98	1997.79
367.18	2129.07
367.39	3021.37
367.60	3211.62
367.80	1911.16
368.01	2158.97
368.22	2852.41
368.42	3357.85
368.63	2103.06
368.83	2138.69
369.04	2674.85
369.25	3410.28
369.45	2024.83
369.66	2299.05
369.86	2969.96
370.07	2951.94
370.28	1872.66
370.48	2315.23
370.69	2735.06
370.89	2918.77
371.10	1906.45
371.31	2203.82
371.51	2908.53
371.72	4929.46
371.92	2152.01
372.13	2206.69
372.33	3208.96
372.54	3047.38
372.75	1998.20
372.95	2133.98
373.16	2809.61
373.36	2837.46
373.57	2040.39
373.78	2193.37
373.98	3340.24
374.19	3091.61
374.39	1993.90
374.60	1980.39
374.80	3226.17
375.01	3019.93
375.22	1902.77
375.42	2158.97
375.63	2855.69
375.83	3315.05
376.04	2181.91
376.24	1877.99
376.45	2850.36
376.66	2772.34
376.86	1947.21
377.07	2026.67
377.27	2635.53
377.48	3179.88
377.68	2103.26
377.89	1947.41
378.09	2873.71
378.30	3044.72
378.51	1935.13
378.71	2112.48
378.92	2634.30
379.12	3083.83
379.33	1956.63
379.53	2396.12
379.74	3050.86
379.94	2898.90
380.15	2053.29
380.36	2069.06
380.56	3057.62
380.77	2931.46
380.97	2000.46
381.18	2257.07
381.38	2848.31
381.59	2842.17
381.79	1979.16
382.00	2168.80
382.20	2824.97
382.41	3045.12
382.61	2150.57
382.82	2004.14
383.03	2657.24
383.23	3368.91
383.44	1960.52
383.64	1958.47
383.85	2959.93
384.05	2978.98
384.26	1896.83
384.46	2129.48
384.67	3003.55
384.87	2862.65
385.08	1923.04
385.28	2072.75
385.49	3015.02
385.69	2847.91
385.90	2585.97
386.10	1901.13
386.31	2913.44
386.51	3207.53
386.72	1914.44
386.92	2177.40
387.13	2899.72
387.33	3168.41
387.54	2229.62
387.74	1920.38
387.95	3013.38
388.15	2879.24
388.36	2246.62
388.56	1929.19
388.77	2691.85
388.97	3125.00
389.18	2187.64
389.38	2126.20
389.59	3123.15
389.79	3159.61
390.00	2071.93
390.20	2592.52
390.41	2824.97
390.61	2983.48
390.82	1951.30
391.02	2019.50
391.23	3006.01
391.43	3331.43
391.64	2043.46
391.84	1943.73
392.05	2739.36
392.25	3080.96
392.46	2024.42
392.66	1930.21
392.87	2946.82
393.07	3072.98
393.28	1923.25
393.48	2061.69
393.69	3352.32
393.89	3024.44
394.10	2237.00
394.30	2007.21
394.51	2936.17
394.71	3052.70
394.92	1964.00
395.12	2116.99
395.32	4164.34
395.53	2868.79
395.73	2090.36
395.94	1979.16
396.14	3026.90
396.35	3164.93
396.55	2269.56
396.76	2003.32
396.96	3144.25
397.17	2929.82
397.37	2177.40
397.58	2228.60
397.78	2735.06
397.98	3123.77
398.19	2037.73
398.39	2244.57
398.60	2469.85
398.80	2992.70
399.01	2431.76
399.21	2132.14
399.42	3045.33
399.62	3025.67
399.83	2074.59
400.03	1893.96
400.23	2604.40
400.44	3145.48
400.64	2093.02
400.85	2192.56
401.05	2956.65
401.26	2735.47
401.46	2152.42
401.66	2323.01
401.87	3001.09
402.07	2642.90
402.28	1991.85
402.48	2190.10
402.69	3125.61
402.89	3021.57
403.09	2089.13
403.30	1903.79
403.50	3159.81
403.71	2835.21
403.91	2088.31
404.12	2554.02
404.32	2638.60
404.52	2784.42
404.73	2290.24
404.93	1968.92
405.14	2235.15
405.34	3225.14
405.54	2020.32
405.75	2180.27
405.95	3223.71
406.16	3071.54
406.36	2203.20
406.57	2073.36
406.77	3043.69
406.97	3095.71
407.18	2089.75
407.38	1946.80
407.59	3026.90
407.79	2971.60
407.99	2116.78
408.20	2147.50
408.40	3164.93
408.61	2545.01
408.81	2104.08
409.01	2082.99
409.22	3365.22
409.42	3155.10
409.63	2036.09
409.83	2067.01
410.03	2660.52
410.24	3142.40
410.44	2120.47
410.64	2337.96
410.85	2874.53
411.05	3075.03
411.26	2164.50
411.46	2002.91
411.66	3154.49
411.87	3115.98
412.07	1985.92
412.28	2178.63
412.48	3164.73
412.68	2726.05
412.89	2094.46
413.09	2244.16
413.29	3113.94
413.50	3398.19
413.70	1988.58
413.91	2216.11
414.11	2975.08
414.31	3059.67
414.52	1994.52
414.72	1997.38
414.92	3160.22
415.13	3136.26
415.33	1979.77
415.53	2077.05
415.74	3283.30
415.94	3128.27
416.14	2055.34
416.35	1857.10
416.55	3068.47
416.76	3047.99
416.96	2103.06
417.16	2073.98
417.37	2952.56
417.57	3046.56
417.77	1888.43
417.98	2154.87
418.18	2843.40
418.38	3181.52
418.59	2019.91
418.79	1990.01
418.99	2765.37
419.20	3201.38
419.40	2048.79
419.60	2216.72
419.81	2902.79
420.01	3055.16
420.21	2274.27
420.42	2216.11
420.62	2894.60
420.82	2933.10
421.03	1967.89
421.23	2169.62
421.43	2708.44
421.64	3013.38
421.84	1878.60
422.04	2038.34
422.25	2897.67
422.45	2815.34
422.65	1922.84
422.86	2249.28
423.06	2486.23
423.26	2947.64
423.47	1988.17
423.67	2142.99
423.87	2891.73
424.08	2643.93
424.28	2025.03
424.48	2169.00
424.68	2959.72
424.89	3041.85
425.09	2163.88
425.29	2200.34
425.50	2775.20
425.70	2859.58
425.90	2175.15
426.11	2020.94
426.31	3228.62
426.51	3096.32
426.71	2152.01
426.92	2176.38
427.12	3120.08
427.32	2976.52
427.53	2141.15
427.73	2314.41
427.93	3212.24
428.14	3282.07
428.34	2032.61
428.54	2206.07
428.74	3028.54
428.95	3294.57
429.15	1973.42
429.35	2103.67
429.56	2600.31
429.76	2913.24
429.96	2141.77
430.16	2082.78
430.37	2982.25
430.57	3062.12
430.77	2154.26
430.97	2146.68
431.18	2902.18
431.38	3140.56
431.58	2330.38
431.79	2112.89
431.99	3087.93
432.19	3174.35
432.39	2618.12
432.60	2240.48
432.80	3082.81
433.00	3406.18
433.20	2081.97
433.41	2151.60
433.61	3126.43
433.81	2953.17
434.01	2201.36
434.22	2209.35
434.42	3424.20
434.62	2998.02
434.82	2191.74
435.03	2059.64
435.23	3032.43
435.43	3431.37
435.63	2103.06
435.84	2127.43
436.04	2943.14
436.24	3340.44
436.44	2202.59
436.65	2352.30
436.85	2985.94
437.05	2908.73
437.25	2079.51
437.46	1998.41
437.66	3010.31
437.86	3273.68
438.06	2207.92
438.27	2201.36
438.47	3066.42
438.67	3091.00
438.87	2110.02
439.08	2252.36
439.28	2995.15
439.48	3304.60
439.68	2301.51
439.88	2338.17
440.09	3228.42
440.29	3044.72
440.49	2013.97
440.69	2362.95
440.90	3128.48
441.10	3119.26
441.30	2171.87
441.50	2199.72
441.70	3179.88
441.91	3228.01
442.11	2479.07
442.31	2309.70
442.51	2718.88
442.71	3292.72
442.92	2342.26
443.12	2279.39
443.32	3363.38
443.52	3359.08
443.73	2349.63
443.93	2495.86
444.13	3228.21
444.33	3488.92
444.53	2405.95
444.74	2400.63
444.94	3084.45
445.14	3488.10
445.34	2439.75
445.54	2484.60
445.74	3051.27
445.95	3735.09
446.15	2459.20
446.35	2570.20
446.55	3550.36
446.75	3493.02
446.96	2375.23
447.16	2272.43
447.36	2959.72
447.56	3579.85
447.76	2379.13
447.97	2284.92
448.17	3254.02
448.37	3291.70
448.57	2590.07
448.77	2814.73
448.97	3285.56
449.18	3426.87
449.38	2310.11
449.58	2475.99
449.78	3132.78
449.98	3376.28
450.18	2312.36
450.39	2417.83
450.59	3194.22
450.79	3195.04
450.99	2778.48
451.19	2221.23
451.39	3364.61
451.60	3359.08
451.80	2248.06
452.00	2517.57
452.20	3222.07
452.40	3364.40
452.60	2366.63
452.80	2371.55
453.01	3207.32
453.21	3365.63
453.41	2374.62
453.61	2336.73
453.81	2781.55
454.01	3310.54
454.22	2445.07
454.42	2316.25
454.62	3388.36
454.82	3353.55
455.02	2292.70
455.22	2288.40
455.42	2960.95
455.62	3327.95
455.83	2270.99
456.03	2551.97
456.23	3045.53
456.43	3148.55
456.63	2256.86
456.83	2278.77
457.03	3476.84
457.24	3207.12
457.44	2102.65
457.64	2403.91
457.84	3067.04
458.04	3463.12
458.24	2264.03
458.44	2350.86
458.64	2876.37
458.84	3256.27
459.05	2429.10
459.25	2339.19
459.45	2969.35
459.65	3251.97
459.85	2563.65
460.05	2412.92
460.25	3040.21
460.45	3087.31
460.65	2329.56
460.86	2234.95
461.06	3069.91
461.26	3136.87
461.46	2199.11
461.66	2246.01
461.86	3334.71
462.06	3518.41
462.26	2157.33
462.46	2285.74
462.66	3084.24
462.87	2838.08
463.07	2013.15
463.27	2170.03
463.47	3091.41
463.67	3175.58
463.87	2092.00
464.07	4100.44
464.27	2948.67
464.47	3155.72
464.67	2263.01
464.87	2260.96
465.08	3146.70
465.28	2926.96
465.48	2137.46
465.68	2225.73
465.88	3375.46
466.08	3196.06
466.28	2070.70
466.48	2151.60
466.68	3052.70
466.88	3218.59
467.08	2171.05
467.28	2241.09
467.48	2963.82
467.68	3118.65
467.89	2278.57
468.09	2220.41
468.29	2848.31
468.49	3305.63
468.69	2168.59
468.89	2164.50
469.09	2989.42
469.29	3203.84
469.49	1897.85
469.69	2202.39
469.89	3155.72
470.09	3183.57
470.29	2120.26
470.49	2722.36
470.69	3139.74
470.89	3197.90
471.09	2061.89
471.29	2262.39
471.49	3024.44
471.70	3506.33
471.90	2259.32
472.10	2161.22
472.30	2835.62
472.50	2813.70
472.70	2119.85
472.90	2414.15
473.10	3363.17
473.30	3157.15
473.50	2055.34
473.70	2063.53
473.90	3387.34
474.10	3244.80
474.30	1920.99
474.50	2030.97
474.70	3446.32
474.90	2962.18
475.10	2108.38
475.30	2063.74
475.50	2815.75
475.70	3140.36
475.90	2267.92
476.10	2234.95
476.30	2844.83
476.50	3142.40
476.70	2114.94
476.90	2241.30
477.10	2955.42
477.30	3085.88
477.50	2057.18
477.70	2288.61
477.90	3169.64
478.10	3363.58
478.30	2276.52
478.50	2101.63
478.70	2845.86
478.90	3257.29
479.10	2033.22
479.30	2196.24
479.50	3111.89
479.70	3414.78
479.90	2157.13
480.10	2343.08
480.30	3058.64
480.50	3226.57
480.70	2099.37
480.90	2215.90
481.10	2786.88
481.30	3114.96
481.50	2080.12
481.70	2292.91
481.90	3050.45
482.10	3231.49
482.30	2134.80
482.50	8792.95
482.70	2700.04
482.90	2928.60
483.10	2313.59
483.30	2170.23
483.50	3339.21
483.70	3305.83
483.90	2161.63
484.10	2132.75
484.30	3220.43
484.50	3104.93
484.70	2396.94
484.90	2228.39
485.10	3025.67
485.30	2755.75
485.50	2256.66
485.69	2273.45
485.89	3333.27
486.09	3313.20
486.29	2518.80
486.49	2228.80
486.69	3137.08
486.89	3311.77
487.09	2234.54
487.29	2257.68
487.49	2930.03
487.69	3295.59
487.89	2219.18
488.09	2183.34
488.29	2763.53
488.49	3116.80
488.69	2400.22
488.89	2333.05
489.09	3012.97
489.29	3141.99
489.48	2087.29
489.68	2060.67
489.88	3066.22
490.08	3449.19
490.28	2348.61
490.48	2224.71
490.68	3255.04
490.88	3453.28
491.08	2164.09
491.28	2587.81
491.48	3122.74
491.68	3155.51
491.88	2254.40
492.08	2258.91
492.27	3385.09
492.47	3322.62
492.67	2289.63
492.87	2280.21
493.07	3387.14
493.27	3272.65
493.47	2262.19
493.67	2326.70
493.87	3488.51
494.07	3241.32
494.27	2187.03
494.46	2400.63
494.66	3318.73
494.86	3219.41
495.06	2115.14
495.26	2138.49
495.46	2963.21
495.66	2777.66
495.86	2119.65
496.06	2495.86
496.26	2904.84
496.45	3214.90
496.65	2137.26
496.85	2093.64
497.05	3079.74
497.25	3488.10
497.45	2187.44
497.65	2190.51
497.85	3303.78
498.05	3110.66
498.24	2454.70
498.44	2134.19
498.64	2839.51
498.84	3366.04
499.04	2064.97
499.24	2625.70
499.44	3229.24
499.64	3295.80
499.83	2191.74
500.03	2340.42
500.23	3393.48
500.43	3607.70
500.63	2114.32
500.83	2406.98
501.03	3227.39
501.22	3244.80
501.42	2471.49
501.62	2263.01
501.82	2927.37
502.02	3176.19
502.22	2373.39
502.42	2395.71
502.62	2822.51
502.81	3050.24
503.01	2130.91
503.21	2279.80
503.41	3439.56
503.61	3445.50
503.81	2256.04
504.00	2384.25
504.20	3098.58
504.40	3276.75
504.60	2585.15
504.80	2523.30
505.00	3374.44
505.20	3345.15
505.39	2163.88
505.59	2497.09
505.79	3138.51
505.99	3446.94
506.19	2559.35
506.39	2469.24
506.58	3304.19
506.78	3291.70
506.98	2526.37
507.18	2562.42
507.38	3166.36
507.57	3120.49
507.77	2075.41
507.97	2345.13
508.17	3332.05
508.37	3205.48
508.57	2207.30
508.76	2412.92
508.96	3040.00
509.16	3615.48
509.36	2174.12
509.56	2374.62
509.75	3414.78
509.95	2766.40
510.15	2315.84
510.35	2398.58
510.55	3037.14
510.75	3175.38
510.94	2451.01
511.14	2354.96
511.34	3219.61
511.54	2842.79
511.74	2264.85
511.93	2738.95
512.13	3498.75
512.33	3280.44
512.53	2132.55
512.72	2325.88
512.92	3276.14
513.12	3480.73
513.32	2619.97
513.52	2238.63
513.71	3232.10
513.91	3419.29
514.11	2642.08
514.31	2363.77
514.51	3256.68
514.70	3372.19
514.90	2741.21
515.10	2429.71
515.30	3023.01
515.49	3445.91
515.69	2448.96
515.89	2533.95
516.09	3262.00
516.29	3643.13
516.48	2747.55
516.68	2526.37
516.88	3356.83
517.08	3476.22
517.27	2313.80
517.47	2385.27
517.67	3409.05
517.87	3377.71
518.06	2498.93
518.26	2403.09
518.46	3027.92
518.66	3534.59
518.85	2524.94
519.05	2471.69
519.25	3445.09
519.45	3036.93
519.64	2390.80
519.84	2594.57
520.04	3192.58
520.24	3417.45
520.43	2516.13
520.63	2514.50
520.83	2940.27
521.03	3351.91
521.22	2530.06
521.42	2431.76
521.62	3376.90
521.82	3503.05
522.01	2446.09
522.21	2639.22
522.41	3098.37
522.61	3443.25
522.80	2342.47
523.00	2619.35
523.20	3317.91
523.39	3622.04
523.59	2540.30
523.79	2493.40
523.99	3237.43
524.18	3560.80
524.38	2522.48
524.58	2650.48
524.77	3388.36
524.97	3248.08
525.17	2409.44
525.37	2584.13
525.56	3657.88
525.76	3492.61
525.96	2583.51
526.15	2403.29
526.35	3386.93
526.55	3514.11
526.75	2532.72
526.94	2649.66
527.14	3044.51
527.34	3641.08
527.53	2652.94
527.73	2480.29
527.93	3333.07
528.12	3367.07
528.32	2430.94
528.52	2669.53
528.72	3509.60
528.91	3498.55
529.11	2614.64
529.31	2582.08
529.50	3787.72
529.70	3273.06
529.90	2579.01
530.09	2416.81
530.29	3560.39
530.49	3440.38
530.68	2472.92
530.88	2807.15
531.08	3640.06
531.27	3434.24
531.47	2535.59
531.67	2607.06
531.86	3548.52
532.06	3223.09
532.26	2525.76
532.45	3045.94
532.65	3112.71
532.85	3069.50
533.04	2459.82
533.24	2630.41
533.44	3360.92
533.63	3490.15
533.83	2651.10
534.03	3053.73
534.22	3403.31
534.42	3420.11
534.62	2691.85
534.81	2630.41
535.01	3135.03
535.21	3808.81
535.40	2575.32
535.60	3190.74
535.80	3235.79
535.99	3722.18
536.19	2836.64
536.38	2735.06
536.58	3769.70
536.78	3682.25
536.97	2899.92
537.17	3026.28
537.37	3604.63
537.56	3882.13
537.76	2864.49
537.96	2974.47
538.15	4249.33
538.35	4387.57
538.54	3142.61
538.74	3452.88
538.94	4448.19
539.13	4609.98
539.33	3939.88
539.53	4117.65
539.72	5127.09
539.92	5766.06
540.11	4961.61
540.31	5557.98
540.51	6906.16
540.70	7581.58
540.90	6951.22
541.10	7422.66
541.29	9173.26
541.49	9432.74
541.68	9233.68
541.88	9885.14
542.08	11550.54
542.27	11897.47
542.47	11488.29
542.66	12133.81
542.86	13351.94
543.06	14347.66
543.25	13737.36
543.45	14521.33
543.64	15657.95
543.84	16201.07
544.04	15498.21
544.23	16345.25
544.43	17528.97
544.62	17943.69
544.82	16731.09
545.01	17038.49
545.21	18218.53
545.41	18012.29
545.60	16844.34
545.80	17040.94
545.99	18104.04
546.19	18110.80
546.39	17357.97
546.58	17114.67
546.78	18024.38
546.97	18036.05
547.17	16976.23
547.36	17178.77
547.56	18000.01
547.76	18117.56
547.95	17050.77
548.15	16979.30
548.34	17809.34
548.54	17909.08
548.73	16911.92
548.93	17141.09
549.12	17893.51
549.32	17599.01
549.52	17343.63
549.71	17003.87
549.91	17894.33
550.10	17804.63
550.30	17020.87
550.49	16776.55
550.69	17631.37
550.88	17887.37
551.08	16974.59
551.28	16805.43
551.47	18241.87
551.67	17609.46
551.86	16840.24
552.06	17041.76
552.25	17697.52
552.45	17998.78
552.64	16994.25
552.84	17064.90
553.03	17718.62
553.23	18004.92
553.42	16529.36
553.62	16707.94
553.81	17618.27
554.01	17798.08
554.21	16547.79
554.40	16598.17
554.60	17515.87
554.79	17260.08
554.99	16734.98
555.18	16646.09
555.38	17309.02
555.57	21064.79
555.77	16430.24
555.96	16499.46
556.16	17334.42
556.35	17357.56
556.55	15946.30
556.74	15971.49
556.94	16775.12
557.13	17233.86
557.33	15924.80
557.52	15915.99
557.72	16739.89
557.91	16995.07
558.11	15870.94
558.30	15675.77
558.50	16291.59
558.69	16387.85
558.89	15166.23
559.08	14874.40
559.28	15356.69
559.47	15736.18
559.67	14322.67
559.86	14436.54
560.06	14527.88
560.25	14701.96
560.45	13719.55
560.64	13052.73
560.84	13371.39
561.03	13216.16
561.23	11427.05
561.42	10762.69
561.62	11553.00
561.81	11214.88
562.00	9591.25
562.20	9492.74
562.39	9335.67
562.59	9025.81
562.78	7632.78
562.98	7030.27
563.17	7666.98
563.37	6886.70
563.56	5553.89
563.76	5230.31
563.95	5780.60
564.15	5521.32
564.34	4250.35
564.54	4173.56
564.73	4896.69
564.92	4911.44
565.12	3550.56
565.31	3491.38
565.51	4401.49
565.70	4277.18
565.90	3053.11
566.09	3283.71
566.29	3975.93
566.48	4161.68
566.67	3074.41
566.87	2797.12
567.06	3842.40
567.26	3498.34
567.45	2558.53
567.65	2608.09
567.84	3849.77
568.03	3941.32
568.23	2546.44
568.42	2963.00
568.62	3430.35
568.81	3708.87
569.01	2692.05
569.20	2414.96
569.39	3738.36
569.59	3782.19
569.78	2508.35
569.98	2644.95
570.17	3681.22
570.37	3480.93
570.56	2776.23
570.75	2559.55
570.95	3815.37
571.14	3754.75
571.34	2432.78
571.53	2343.29
571.72	3544.83
571.92	3654.81
572.11	2753.90
572.31	2941.29
572.50	3459.63
572.69	3122.74
572.89	2703.11
573.08	2666.66
573.28	3696.58
573.47	3783.42
573.66	2449.78
573.86	2515.32
574.05	3016.45
574.25	3720.14
574.44	2454.90
574.63	2653.96
574.83	3417.45
575.02	3551.38
575.22	2456.33
575.41	2622.63
575.60	3676.10
575.80	3592.14
575.99	2582.90
576.18	2441.79
576.38	3274.09
576.57	3934.15
576.77	2418.04
576.96	2411.28
577.15	3491.38
577.35	3853.25
577.54	2895.83
577.73	2440.15
577.93	3530.29
578.12	3655.42
578.31	2494.84
578.51	2475.79
578.70	3020.55
578.90	3964.25
579.09	2396.94
579.28	2691.24
579.48	3148.34
579.67	3749.01
579.86	2463.91
580.06	2494.22
580.25	3713.58
580.44	3908.96
580.64	2287.58
580.83	2315.02
581.02	3694.74
581.22	3636.17
581.41	2569.38
581.60	2473.13
581.80	3389.39
581.99	3809.02
582.18	2607.06
582.38	2731.58
582.57	2969.96
582.76	3932.92
582.96	2531.08
583.15	2550.34
583.34	3360.92
583.54	3371.98
583.73	2366.02
583.92	2426.84
584.12	3161.65
584.31	3542.58
584.50	2433.40
584.70	2891.53
584.89	3353.96
585.08	3759.05
585.28	2603.17
585.47	2439.75
585.66	3263.03
585.86	3459.84
586.05	2719.50
586.24	2519.21
586.43	3619.17
586.63	3621.83
586.82	2494.43
587.01	2494.63
587.21	3213.26
587.40	3901.79
587.59	2562.21
587.79	2495.04
587.98	3690.64
588.17	3539.09
588.36	2589.25
588.56	3049.84
588.75	3603.61
588.94	3636.58
589.14	2813.70
589.33	2358.85
589.52	3612.82
589.71	3824.17
589.91	2490.13
590.10	2514.70
590.29	3810.25
590.49	3751.26
590.68	2502.21
590.87	2549.11
591.06	3573.30
591.26	3411.92
591.45	2451.62
591.64	2525.35
591.84	3397.17
592.03	3942.95
592.22	2420.90
592.41	2480.91
592.61	3220.02
592.80	3346.38
592.99	2384.04
593.18	2531.08
593.38	3205.28
593.57	3339.01
593.76	2544.40
593.95	2369.09
594.15	3416.42
594.34	3787.51
594.53	2589.86
594.72	2516.95
594.92	3375.46
595.11	3571.66
595.30	2399.40
595.49	2374.62
595.69	3107.59
595.88	3458.81
596.07	2574.50
596.26	2558.53
596.46	3382.83
596.65	3285.15
596.84	2459.61
597.03	2470.06
597.22	3393.28
597.42	4070.75
597.61	2238.43
597.80	2337.14
597.99	3700.07
598.19	3373.41
598.38	2326.08
598.57	2568.97
598.76	3355.19
598.95	3472.74
599.15	2553.00
599.34	2309.29
599.53	3275.93
599.72	3007.03
599.92	2244.37
600.11	2246.01
600.30	3516.98
600.49	3559.37
600.68	2288.81
600.88	2352.71
601.07	3212.03
601.26	3505.30
601.45	2293.52
601.64	2509.58
601.84	3599.51
602.03	3641.90
602.22	2307.45
602.41	2329.36
602.60	3560.39
602.80	3507.35
602.99	2807.36
603.18	2529.86
603.37	3154.08
603.56	3076.66
603.76	2264.64
603.95	2302.12
604.14	3271.43
604.33	3602.17
604.52	2377.69
604.71	2198.70
604.91	2748.37
605.10	3627.98
605.29	2283.28
605.48	2180.06
605.67	3299.48
605.86	3402.90
606.06	2428.07
606.25	2174.53
606.44	3125.81
606.63	2991.06
606.82	2380.15
607.01	2317.89
607.21	3501.21
607.40	3320.37
607.59	2454.70
607.78	2614.85
607.97	3473.56
608.16	3542.58
608.36	2449.78
608.55	2261.57
608.74	3292.72
608.93	3373.21
609.12	2488.90
609.31	2365.61
609.50	3097.55
609.70	3608.73
609.89	2362.54
610.08	2481.32
610.27	3123.36
610.46	3435.26
610.65	2582.08
610.84	2419.68
611.03	3867.18
611.23	3408.23
611.42	2439.54
611.61	2454.70
611.80	3505.71
611.99	3469.26
612.18	2470.67
612.37	2215.29
612.56	3241.32
612.76	3293.34
612.95	2404.11
613.14	2322.60
613.33	3452.06
613.52	3448.16
613.71	2221.23
613.90	2582.08
614.09	3011.13
614.29	3196.67
614.48	2454.29
614.67	2188.46
614.86	3252.38
615.05	3809.43
615.24	2356.19
615.43	2475.18
615.62	3775.84
615.81	3251.76
616.00	2419.06
616.20	2461.25
616.39	3441.82
616.58	3162.68
616.77	2307.04
616.96	2300.28
617.15	3565.51
617.34	3304.40
617.53	2401.65
617.72	2307.45
617.91	3051.88
618.10	3444.89
618.29	2259.32
618.49	2237.00
618.68	3388.16
618.87	3393.48
619.06	2302.12
619.25	2283.89
619.44	2984.30
619.63	3072.98
619.82	2436.26
620.01	2181.09
620.20	3206.30
620.39	3543.40
620.58	2241.30
620.77	2420.90
620.96	3506.33
621.16	3347.61
621.35	2332.84
621.54	2447.12
621.73	3728.33
621.92	3513.09
622.11	2489.51
622.30	2303.76
622.49	3300.71
622.68	3363.17
622.87	2406.16
623.06	2366.84
623.25	3580.05
623.44	3645.79
623.63	2189.48
623.82	2377.28
624.01	3326.52
624.20	3496.91
624.39	2622.22
624.58	2474.97
624.77	3214.49
624.96	3381.40
625.15	2193.37
625.34	2315.64
625.53	3336.14
625.72	3612.62
625.92	2345.33
626.11	2398.99
626.30	3564.08
626.49	3435.67
626.68	2384.45
626.87	2425.82
627.06	3633.92
627.25	3461.27
627.44	2433.19
627.63	2468.83
627.82	2720.52
628.01	3286.58
628.20	2202.18
628.39	2359.87
628.58	3201.38
628.77	3783.42
628.96	2146.27
629.15	2279.80
629.34	3189.71
629.53	3408.84
629.72	2655.19
629.91	2717.24
630.10	3612.21
630.29	3377.92
630.48	2222.05
630.67	2366.02
630.86	3328.15
631.05	3363.17
631.24	2122.11
631.43	2315.84
631.62	3026.08
631.81	3644.77
632.00	2289.42
632.19	2527.19
632.37	3676.72
632.56	3281.67
632.75	2276.11
632.94	2650.48
633.13	3597.87
633.32	3177.22
633.51	2173.71
633.70	2203.61
633.89	3331.23
634.08	3428.71
634.27	2169.82
634.46	2505.28
634.65	3245.83
634.84	3591.93
635.03	2388.75
635.22	2431.96
635.41	3343.72
635.60	3538.48
635.79	2184.77
635.98	2287.58
636.17	3097.76
636.36	3215.31
636.55	2183.13
636.74	2287.79
636.92	3582.31
637.11	3382.43
637.30	2409.44
637.49	2352.09
637.68	3076.87
637.87	3473.56
638.06	2390.80
638.25	2264.85
638.44	3017.07
638.63	3273.27
638.82	2127.43
639.01	2174.74
639.20	3045.94
639.39	3442.43
639.58	2251.33
639.76	2225.53
639.95	3353.34
640.14	3176.60
640.33	2173.51
640.52	2189.28
640.71	3142.20
640.90	3355.39
641.09	2270.99
641.28	2217.95
641.47	3366.66
641.66	3363.79
641.84	2149.55
642.03	2111.05
642.22	3073.18
642.41	2987.58
642.60	2223.89
642.79	2150.98
642.98	3213.67
643.17	3177.63
643.36	2141.97
643.55	2246.21
643.73	2966.28
643.92	3563.67
644.11	2169.62
644.30	2455.92
644.49	3426.25
644.68	3606.06
644.87	2252.97
645.06	2541.73
645.25	2849.75
645.43	3410.28
645.62	2312.57
645.81	2170.85
646.00	3387.34
646.19	3266.92
646.38	2416.60
646.57	2177.61
646.76	3114.96
646.94	3590.50
647.13	2148.73
647.32	2276.52
647.51	3386.32
647.70	3011.33
647.89	1985.51
648.08	2182.93
648.26	3094.89
648.45	3514.31
648.64	2199.52
648.83	2119.65
649.02	2886.61
649.21	3114.55
649.40	2223.48
649.58	2195.22
649.77	2974.88
649.96	3406.39
650.15	1988.37
650.34	2051.86
650.53	3087.72
650.71	3005.39
650.90	2185.59
651.09	2482.34
651.28	3226.37
651.47	2984.71
651.66	2470.67
651.84	2248.46
652.03	3884.79
652.22	3382.83
652.41	2219.18
652.60	2244.16
652.79	3083.83
652.97	3290.06
653.16	2095.89
653.35	2257.07
653.54	3076.87
653.73	3721.36
653.91	2075.21
654.10	2171.05
654.29	2993.11
654.48	3475.40
654.67	2279.39
654.86	2209.96
655.04	3009.29
655.23	3204.05
655.42	2180.68
655.61	2450.60
655.80	3079.33
655.98	3366.04
656.17	2206.07
656.36	2191.33
656.55	3747.58
656.73	3160.02
656.92	2126.41
657.11	2195.83
657.30	3465.57
657.49	3641.08
657.67	2161.02
657.86	2361.92
658.05	3064.38
658.24	2930.64
658.43	2034.25
658.61	2134.60
658.80	3084.24
658.99	3175.99
659.18	2062.30
659.36	2012.95
659.55	2625.91
659.74	3187.87
659.93	2140.33
660.12	2145.04
660.30	3493.83
660.49	3231.49
660.68	2119.85
660.87	2485.21
661.05	3090.38
661.24	3115.57
661.43	2143.61
661.62	2475.79
661.80	2826.61
661.99	3122.33
662.18	2182.11
662.37	2379.74
662.55	3237.02
662.74	3617.74
662.93	2221.23
663.12	2067.01
663.30	3360.92
663.49	3051.68
663.68	2000.66
663.87	2299.87
664.05	2987.99
664.24	2937.40
664.43	1962.77
664.61	2170.03
664.80	3225.14
664.99	2926.34
665.18	2144.63
665.36	2292.70
665.55	3075.64
665.74	3010.92
665.93	2085.86
666.11	2145.86
666.30	3125.41
666.49	3148.34
666.67	1938.61
666.86	2344.31
667.05	3535.41
667.24	3155.51
667.42	2215.29
667.61	2480.29
667.80	2978.16
667.98	3048.40
668.17	2108.59
668.36	2137.87
668.54	3077.89
668.73	3291.09
668.92	2510.40
669.11	2129.27
669.29	3205.48
669.48	3431.58
669.67	2167.37
669.85	2270.79
670.04	2985.94
670.23	3216.54
670.41	2222.87
670.60	2188.87
670.79	3314.43
670.97	3251.76
671.16	2218.97
671.35	1954.38
671.53	3131.75
671.72	2962.59
671.91	2092.82
672.10	2016.63
672.28	3279.41
672.47	3798.37
672.66	2282.46
672.84	2333.87
673.03	3297.23
673.22	3392.46
673.40	2191.94
673.59	2347.79
673.78	3087.52
673.96	3385.70
674.15	2106.34
674.33	2304.99
674.52	2797.93
674.71	3155.92
674.89	2004.76
675.08	2083.81
675.27	2608.70
675.45	3174.76
675.64	2194.81
675.83	2121.08
676.01	3064.58
676.20	2876.99
676.39	2059.85
676.57	2097.73
676.76	3073.80
676.94	3247.26
677.13	1951.71
677.32	2207.51
677.50	3337.17
677.69	3299.89
677.88	2083.81
678.06	2549.31
678.25	3264.26
678.44	3293.95
678.62	2004.35
678.81	2338.99
678.99	2963.41
679.18	3447.76
679.37	2066.81
679.55	2203.61
679.74	3204.46
679.92	3018.09
680.11	2068.86
680.30	2340.21
680.48	2818.41
680.67	3041.23
680.85	2219.59
681.04	2301.51
681.23	2738.75
681.41	3681.22
681.60	2185.39
681.78	2096.51
681.97	2702.91
682.16	3076.87
682.34	2159.99
682.53	2224.50
682.71	3037.75
682.90	2934.94
683.09	1928.98
683.27	2095.48
683.46	3294.16
683.64	3255.45
683.83	2091.18
684.02	1982.43
684.20	3019.32
684.39	2999.86
684.57	2532.72
684.76	2246.42
684.94	3083.01
685.13	2874.32
685.32	2106.34
685.50	2161.63
685.69	3130.53
685.87	3350.89
686.06	2043.46
686.24	2175.15
686.43	2815.75
686.61	3310.54
686.80	2082.78
686.99	2150.57
687.17	3029.76
687.36	3131.96
687.54	2000.66
687.73	2000.05
687.91	3325.29
688.10	3103.70
688.28	2061.49
688.47	1988.17
688.66	2868.18
688.84	3061.92
689.03	1916.08
689.21	1903.38
689.40	2869.20
689.58	2990.65
689.77	2378.31
689.95	2120.26
690.14	3095.30
690.32	3391.64
690.51	1929.39
690.69	2009.06
690.88	2961.36
691.06	3369.93
691.25	2077.25
691.43	2348.61
691.62	2801.83
691.80	3109.84
691.99	2155.28
692.18	2045.31
692.36	3353.34
692.55	3125.81
692.73	1929.60
692.92	2048.38
693.10	3198.11
693.29	3142.20
693.47	2196.24
693.66	2125.79
693.84	2645.77
694.03	2788.92
694.21	2190.71
694.40	1951.71
694.58	2726.46
694.77	2919.99
694.95	1963.39
695.14	1988.37
695.32	3227.80
695.50	3178.86
695.69	2011.72
695.87	2261.78
696.06	2994.74
696.24	3061.92
696.43	2221.02
696.61	1999.64
696.80	2900.33
696.98	3114.76
697.17	1937.58
697.35	2452.85
697.54	3050.65
697.72	3171.28
697.91	2129.27
698.09	2176.99
698.28	2704.96
698.46	3023.42
698.65	2088.52
698.83	2196.45
699.01	2742.64
699.20	3649.89
699.38	2087.49
699.57	2268.94
699.75	2681.20
699.94	2927.98
700.12	2076.85
700.31	2137.87
700.49	3133.60
700.67	3348.63
700.86	2247.24
701.04	1966.05
701.23	2982.87
701.41	3115.57
701.60	2050.63
701.78	1985.51
701.97	2906.48
702.15	3263.44
702.33	2060.26
702.52	2073.77
702.70	3001.30
702.89	3178.24
703.07	2321.37
703.26	2024.01
703.44	2507.33
703.62	3106.36
703.81	2046.94
703.99	1947.41
704.18	2756.57
704.36	2825.38
704.54	2010.08
704.73	2053.91
704.91	2736.50
705.10	3121.31
705.28	1978.95
705.46	2144.63
705.65	3183.77
705.83	3315.66
706.02	2219.59
706.20	2133.57
706.38	2986.14
706.57	2912.42
706.75	2233.72
706.94	2318.10
707.12	2536.20
707.30	3143.63
707.49	1996.77
707.67	1990.22
707.86	3038.78
708.04	3118.65
708.22	2184.16
708.41	2113.09
708.59	2922.86
708.78	3332.66
708.96	2279.80
709.14	1934.51
709.33	3090.18
709.51	3182.54
709.69	2116.37
709.88	1968.51
710.06	2886.61
710.24	2975.29
710.43	1900.31
710.61	1975.47
710.80	2924.50
710.98	2866.34
711.16	2103.67
711.35	2143.81
711.53	3207.12
711.71	2695.95
711.90	2100.40
712.08	1981.00
712.26	3086.29
712.45	3065.19
712.63	1890.07
712.81	2040.60
713.00	2803.67
713.18	3237.43
713.36	2139.51
713.55	2130.30
713.73	3049.43
713.91	2875.14
714.10	2059.85
714.28	1940.66
714.46	3133.39
714.65	3330.82
714.83	2037.73
715.01	1919.56
715.20	3136.05
715.38	2931.87
715.56	2012.33
715.75	2219.79
715.93	3155.10
716.11	2879.44
716.30	2020.32
716.48	1956.63
716.66	2924.29
716.85	3136.46
717.03	1863.45
717.21	2216.52
717.40	2767.62
717.58	2981.64
717.76	2246.62
717.94	1994.52
718.13	2834.39
718.31	3054.95
718.49	2127.43
718.68	1920.99
718.86	3269.17
719.04	2904.22
719.23	2363.77
719.41	2129.07
719.59	2605.02
719.77	3213.67
719.96	1973.63
720.14	1965.23
720.32	3107.59
720.51	3101.24
720.69	1928.37
720.87	2262.80
721.05	2907.71
721.24	3491.79
721.42	2011.11
721.60	2354.55
721.78	3225.35
721.97	3442.23
722.15	1957.86
722.33	2379.74
722.51	2906.27
722.70	3282.48
722.88	1973.63
723.06	2143.20
723.25	2819.44
723.43	2984.30
723.61	2100.40
723.79	1855.66
723.98	2744.89
724.16	2910.37
724.34	2079.30
724.52	2183.54
724.71	2835.62
724.89	3071.95
725.07	2234.13
725.25	2019.71
725.43	2822.31
725.62	2855.07
725.80	2104.29
725.98	1983.46
726.16	2941.50
726.35	3095.50
726.53	2334.07
726.71	1996.77
726.89	2841.56
727.08	3193.81
727.26	2110.43
727.44	2040.60
727.62	2734.65
727.80	3305.63
727.99	1981.82
728.17	2082.37
728.35	2649.87
728.53	3128.48
728.71	2352.50
728.90	2020.32
729.08	3039.80
729.26	3073.59
729.44	1957.24
729.63	2361.92
729.81	2801.83
729.99	3105.74
730.17	1848.09
730.35	2116.58
730.53	3127.66
730.72	3059.87
730.90	2022.57
731.08	2163.68
731.26	3154.69
731.44	3218.59
731.63	2050.63
731.81	1951.30
731.99	3212.85
732.17	3303.99
732.35	2048.17
732.54	2220.41
732.72	2732.81
732.90	2965.66
733.08	2204.23
733.26	2175.56
733.44	3155.10
733.63	2968.12
733.81	2097.12
733.99	1995.13
734.17	3403.72
734.35	3178.65
734.53	2106.34
734.72	2132.96
734.90	3031.40
735.08	3081.78
735.26	1926.93
735.44	2339.60
735.62	3280.44
735.80	3332.86
735.99	1950.28
736.17	2113.91
736.35	3345.36
736.53	2945.39
736.71	2149.75
736.89	1945.78
737.07	2831.52
737.26	3120.08
737.44	1798.12
737.62	1872.25
737.80	2911.39
737.98	2701.07
738.16	2152.21
738.34	1965.23
738.53	2726.46
738.71	3065.40
738.89	2036.09
739.07	2088.52
739.25	3145.88
739.43	2944.16
739.61	1792.38
739.79	2207.10
739.97	3200.98
740.16	3189.92
740.34	2148.11
740.52	2337.14
740.70	3116.60
740.88	3284.94
741.06	2011.11
741.24	1970.15
741.42	3240.91
741.60	3003.76
741.79	1991.24
741.97	1896.83
742.15	3014.81
742.33	3351.50
742.51	1954.99
742.69	2052.06
742.87	2843.81
743.05	3120.90
743.23	1982.84
743.41	2256.04
743.59	3321.60
743.77	2982.46
743.96	1924.48
744.14	2270.58
744.32	2695.95
744.50	3219.00
744.68	1923.45
744.86	2037.93
745.04	2994.54
745.22	3009.08
745.40	1959.91
745.58	1934.10
745.76	3242.34
745.94	3191.55
746.12	2070.09
746.30	1989.60
746.49	2685.30
746.67	3400.04
746.85	2143.81
747.03	2045.92
747.21	2768.85
747.39	3031.20
747.57	2123.74
747.75	2154.05
747.93	3095.30
748.11	2952.76
748.29	2164.70
748.47	2402.88
748.65	2970.99
748.83	2917.33
749.01	2146.07
749.19	1914.44
749.37	3217.56
749.55	2984.71
749.73	2031.99
749.91	2108.18
750.09	3273.27
750.27	3062.33
750.45	1894.58
750.63	2087.90
750.81	2598.26
750.99	3236.20
751.17	1984.48
751.35	1974.65
751.53	2919.99
751.71	3094.89
751.89	2178.01
752.07	2046.54
752.25	2280.82
752.44	3098.37
752.62	2087.90
752.80	1916.90
752.98	2603.58
753.16	3093.87
753.34	2331.20
753.51	2101.42
753.69	3202.00
753.87	2973.24
754.05	1935.54
754.23	2056.16
754.41	2741.82
754.59	3047.99
754.77	2397.15
754.95	2075.62
755.13	2934.94
755.31	2939.65
755.49	2172.08
755.67	2043.87
755.85	3011.95
756.03	3221.05
756.21	1795.45
756.39	2093.84
756.57	3117.83
756.75	3383.86
756.93	1995.13
757.11	1988.99
757.29	3105.54
757.47	3262.62
757.65	1906.66
757.83	2170.23
758.01	2839.92
758.19	2970.37
758.37	2146.27
758.55	2091.39
758.73	2765.99
758.91	3164.32
759.09	2181.50
759.27	2403.29
759.44	3331.64
759.62	2832.14
759.80	2212.22
759.98	1971.37
760.16	3020.14
760.34	3300.71
760.52	1774.77
760.70	2193.37
760.88	3224.12
761.06	3103.08
761.24	2352.91
761.42	2023.60
761.60	3131.96
761.78	3180.29
761.95	1914.65
762.13	2199.72
762.31	3195.65
762.49	2967.51
762.67	2141.97
762.85	2248.06
763.03	3155.31
763.21	3097.96
763.39	2014.59
763.57	1980.59
763.75	2920.20
763.92	3211.62
764.10	1994.72
764.28	2152.62
764.46	3361.95
764.64	2921.43
764.82	2287.58
765.00	1894.37
765.18	3163.70
765.36	3065.81
765.54	1935.54
765.71	2150.98
765.89	2726.87
766.07	3126.84
766.25	2005.58
766.43	2130.91
766.61	2933.51
766.79	3335.73
766.97	2342.26
767.14	2033.63
767.32	3055.16
767.50	3043.90
767.68	2062.51
767.86	2169.82
768.04	2873.71
768.22	3356.83
768.40	1938.20
768.57	2230.65
768.75	3394.71
768.93	3201.38
769.11	2243.14
769.29	1936.56
769.47	2837.67
769.65	3422.36
769.82	2446.30
770.00	2078.89
770.18	2858.96
770.36	2995.97
770.54	1941.06
770.72	2009.67
770.89	3226.78
771.07	3008.26
771.25	2123.13
771.43	2003.12
771.61	2697.99
771.79	3032.84
771.96	2052.47
772.14	2161.63
772.32	2848.93
772.50	3177.42
772.68	2145.45
772.86	1947.82
773.03	3125.61
773.21	3137.69
773.39	1975.06
773.57	1819.01
773.75	2820.67
773.92	2977.54
774.10	1892.32
774.28	1899.29
774.46	3328.97
774.64	3222.68
774.82	2199.31
774.99	2004.14
775.17	2560.58
775.35	2950.30
775.53	2082.37
775.71	2066.20
775.88	2926.96
776.06	3109.84
776.24	2008.85
776.42	2002.30
776.59	2874.94
776.77	2923.68
776.95	2127.43
777.13	1994.11
777.31	3045.94
777.48	3087.11
777.66	2191.74
777.84	1863.45
778.02	2931.67
778.19	3350.89
778.37	2213.44
778.55	2084.22
778.73	2683.66
778.91	3124.38
779.08	1925.50
779.26	1959.70
779.44	2967.10
779.62	3106.97
779.79	1953.97
779.97	1852.80
780.15	3206.50
780.33	3115.57
780.50	2107.36
780.68	2101.01
780.86	3069.50
781.04	3097.35
781.21	2137.06
781.39	2108.18
781.57	3416.63
781.75	3039.80
781.92	1954.79
782.10	2495.45
782.28	3120.08
782.46	3031.20
782.63	1977.31
782.81	2230.03
782.99	2796.09
783.16	3139.33
783.34	1970.15
783.52	2320.55
783.70	2896.03
783.87	3152.64
784.05	1945.16
784.23	2064.76
784.41	3102.67
784.58	3141.79
784.76	2142.18
784.94	2031.79
785.11	2760.05
785.29	3150.80
785.47	2053.70
785.65	2350.45
785.82	3302.55
786.00	3124.79
786.18	2144.84
786.35	2285.74
786.53	2984.91
786.71	2944.57
786.88	1945.37
787.06	1937.99
787.24	3015.84
787.41	2933.31
787.59	2242.73
787.77	2085.24
787.95	3080.35
788.12	3123.97
788.30	2219.38
788.48	2192.96
788.65	3036.11
788.83	2711.10
789.01	2012.95
789.18	2153.23
789.36	3196.67
789.54	2764.14
789.71	1960.52
789.89	1994.72
790.07	3112.50
790.24	2894.19
790.42	1986.94
790.60	2102.44
790.77	3071.34
790.95	2831.93
791.13	2007.01
791.30	2109.20
791.48	2835.00
791.66	2904.43
791.83	2035.48
792.01	2037.11
792.18	2766.19
792.36	2862.24
792.54	1859.76
792.71	2084.42
792.89	2855.69
793.07	2979.38
793.24	2279.18
793.42	1982.02
793.60	3070.31
793.77	2853.23
793.95	1871.02
794.12	2248.87
794.30	3233.95
794.48	3163.50
794.65	1832.32
794.83	2266.69
795.01	3061.71
795.18	3005.39
795.36	2215.29
795.53	2028.31
795.71	2851.39
795.89	3091.00
796.06	2021.96
796.24	2147.09
796.41	3081.58
796.59	2880.47
796.77	2073.77
796.94	1959.70
797.12	2801.42
797.29	9024.17
797.47	2019.91
797.65	2081.15
797.82	2977.34
798.00	3107.59
798.17	2079.71
798.35	2087.70
798.53	3459.43
798.70	3040.82
798.88	2103.06
799.05	1965.64
799.23	3022.19
799.40	3193.81
799.58	1894.17
799.76	1936.56
799.93	2864.70
800.11	3267.33
800.28	2156.31
800.46	1982.64
800.63	2726.87
800.81	3231.90
800.99	1842.15
801.16	2376.26
801.34	3131.96
801.51	2931.87
801.69	1948.85
801.86	2017.45
802.04	2375.44
802.21	2867.57
802.39	1896.01
802.57	2620.17
802.74	2515.11
802.92	2859.58
803.09	1902.36
803.27	1969.12
803.44	2927.98
803.62	2778.27
803.79	1997.38
803.97	2101.63
804.14	3101.24
804.32	3183.77
804.49	2019.50
804.67	1976.70
804.84	2969.35
805.02	3006.83
805.20	2044.28
805.37	1965.85
805.55	3118.85
805.72	3024.65
805.90	2066.20
806.07	2022.16
806.25	2350.66
806.42	3179.68
806.60	1886.18
806.77	1939.43
806.95	3079.33
807.12	3290.88
807.30	2151.19
807.47	2102.65
807.65	3000.68
807.82	3470.08
808.00	2015.61
808.17	2478.66
808.35	3007.85
808.52	2979.79
808.70	2023.60
808.87	1964.82
809.05	2717.86
809.22	3061.10
809.40	1962.36
809.57	2198.08
809.75	3220.43
809.92	3227.39
810.09	2007.21
810.27	1984.89
810.44	2861.42
810.62	3324.26
810.79	2111.66
810.97	1989.40
811.14	3256.27
811.32	3051.27
811.49	2267.92
811.67	2129.48
811.84	3236.81
812.02	2838.08
812.19	2177.20
812.36	2307.24
812.54	3231.49
812.71	3263.64
812.89	2036.09
813.06	2103.67
813.24	3043.69
813.41	2865.11
813.59	2020.94
813.76	1897.24
813.93	2873.71
814.11	3166.16
814.28	2105.31
814.46	2300.07
814.63	2983.89
814.81	3193.81
814.98	2038.14
815.16	1978.34
815.33	2885.79
815.50	3254.22
815.68	1945.16
815.85	2003.12
816.03	3054.34
816.20	3380.99
816.37	1997.38
816.55	2058.62
816.72	3411.30
816.90	3284.12
817.07	1920.99
817.24	2044.08
817.42	2977.13
817.59	3007.85
817.77	2068.65
817.94	1892.32
818.11	3320.99
818.29	3167.80
818.46	2110.23
818.64	1800.16
818.81	2805.92
818.98	2983.89
819.16	2038.96
819.33	1970.35
819.51	3168.41
819.68	3142.81
819.85	2226.55
820.03	2018.68
820.20	3286.17
820.38	3286.38
820.55	1961.75
820.72	2145.25
820.90	2967.71
821.07	2997.41
821.24	2060.46
821.42	2017.86
821.59	3077.69
821.76	3251.97
821.94	1880.85
822.11	2320.14
822.29	3127.45
822.46	2712.53
822.63	2001.28
822.81	2242.32
822.98	2978.57
823.15	3190.74
823.33	2009.67
823.50	1982.02
823.67	3350.48
823.85	3039.19
824.02	1837.03
824.19	1881.26
824.37	2859.17
824.54	2975.49
824.71	1981.82
824.89	2104.08
825.06	3081.58
825.23	3404.13
825.41	1974.24
825.58	1867.95
825.75	2948.46
825.93	2972.63
826.10	2023.39
826.27	2140.74
826.45	3033.66
826.62	2996.79
826.79	1993.08
826.97	2012.54
827.14	2832.96
827.31	3253.40
827.48	1969.53
827.66	2259.93
827.83	2928.80
828.00	3132.16
828.18	2137.67
828.35	2057.18
828.52	2924.91
828.70	3090.38
828.87	1840.71
829.04	2071.73
829.21	2835.62
829.39	3164.93
829.56	1935.94
829.73	1822.90
829.91	2870.02
830.08	2924.29
830.25	1874.10
830.42	1958.47
830.60	3365.43
830.77	3594.39
830.94	1783.17
831.11	1660.29
831.29	2602.15
831.46	3351.50
831.63	1825.15
831.81	1829.45
831.98	3068.88
832.15	3488.51
832.32	1749.17
832.50	1890.89
832.67	3116.60
832.84	3010.51
833.01	1727.46
833.19	1888.64
833.36	3188.28
833.53	3344.95
833.70	1742.21
833.88	2188.66
834.05	3700.07
834.22	3057.41
834.39	1720.91
834.57	1755.11
834.74	2821.69
834.91	2879.24
835.08	1794.43
835.25	1940.25
835.43	3081.37
835.60	3346.79
835.77	1900.72
835.94	1824.74
836.12	3233.13
836.29	3268.76
836.46	1875.94
836.63	1772.11
836.80	3320.37
836.98	3323.44
837.15	1921.81
837.32	1873.48
837.49	2833.77
837.66	3290.27
837.84	1844.61
838.01	1999.43
838.18	3523.74
838.35	3418.67
838.52	1775.79
838.70	1910.55
838.87	2846.68
839.04	3690.85
839.21	1723.78
839.38	1878.19
839.56	3098.17
839.73	3081.37
839.90	1747.94
840.07	1684.04
840.24	3044.31
840.42	3451.85
840.59	1718.86
840.76	2089.34
840.93	2708.85
841.10	3328.56
841.27	1880.85
841.45	2116.78
841.62	3034.07
841.79	3145.27
841.96	1852.18
842.13	1875.94
842.30	2947.03
842.48	3843.22
842.65	1914.85
842.82	1708.83
842.99	2854.46
843.16	3513.29
843.33	1902.97
843.50	1806.72
843.68	2538.05
843.85	3342.28
844.02	1708.21
844.19	2255.43
844.36	3225.14
844.53	3199.54
844.70	1938.81
844.88	2007.01
845.05	2957.68
845.22	3217.56
845.39	1712.92
845.56	2009.88
845.73	3142.81
845.90	3343.92
846.07	1766.37
846.25	1727.05
846.42	2763.73
846.59	3328.56
846.76	1893.35
846.93	1692.03
847.10	3216.33
847.27	3498.55
847.44	1845.83
847.61	1742.21
847.79	2663.38
847.96	3501.21
848.13	1705.14
848.30	1968.92
848.47	2664.41
848.64	2870.02
848.81	1734.83
848.98	1919.97
849.15	3551.59
849.32	3412.12
849.49	1770.88
849.67	1839.49
849.84	2971.60
850.01	3174.97
850.18	1786.24
850.35	1759.41
850.52	2739.77
850.69	3845.27
850.86	1826.38
851.03	2268.53
851.20	3187.25
851.37	3122.33
851.54	1844.61
851.71	1790.54
851.89	3228.83
852.06	3417.04
852.23	1876.76
852.40	1832.52
852.57	2927.16
852.74	3533.16
852.91	1765.55
853.08	1933.08
853.25	3430.96
853.42	3451.03
853.59	1631.62
853.76	1823.72
853.93	3277.77
854.10	3520.66
854.27	1720.09
854.44	1824.94
854.61	3075.03
854.78	3186.02
854.95	1930.62
855.12	1899.08
855.29	3080.14
855.46	3464.14
855.63	1751.22
855.80	1843.58
855.97	3047.99
856.14	3494.45
856.31	1785.01
856.49	2033.43
856.66	3157.97
856.83	3294.77
857.00	1919.77
857.17	1885.16
857.34	2905.86
857.51	3527.42
857.68	1747.94
857.85	1802.83
858.02	3071.95
858.19	3410.07
858.36	1893.14
858.53	1880.04
858.70	3511.24
858.87	3098.78
859.04	1746.92
859.21	1825.76
859.37	3119.06
859.54	3463.52
859.71	2037.93
859.88	2045.51
860.05	3285.76
860.22	3269.17
860.39	1745.07
860.56	1918.95
860.73	3081.99
860.90	3425.23
861.07	1859.76
861.24	1640.01
861.41	2818.62
861.58	3154.69
861.75	1730.12
861.92	1840.10
862.09	3009.29
862.26	3165.14
862.43	1922.02
862.60	2038.14
862.77	3144.86
862.94	3473.35
863.11	1785.42
863.28	1815.93
863.45	3218.59
863.62	2944.57
863.78	1888.23
863.95	1923.04
864.12	3036.32
864.29	3378.53
864.46	2126.00
864.63	1816.34
864.80	3282.69
864.97	3248.28
865.14	2016.63
865.31	1973.01
865.48	2939.04
865.65	3302.35
865.82	1690.80
865.99	2003.32
866.15	3497.11
866.32	3365.22
866.49	1719.68
866.66	1749.37
866.83	3334.30
867.00	3198.72
867.17	1644.93
867.34	1944.55
867.51	3142.40
867.68	3382.83
867.84	2022.16
868.01	2033.22
868.18	3110.66
868.35	3556.30
868.52	1700.22
868.69	1806.10
868.86	3060.07
869.03	3484.41
869.20	1707.39
869.36	1866.31
869.53	3215.11
869.70	3605.04
869.87	1883.93
870.04	1909.53
870.21	2905.66
870.38	3288.63
870.55	1738.32
870.71	1862.83
870.88	3219.82
871.05	3305.63
871.22	1998.41
871.39	1886.59
871.56	3509.19
871.73	2977.34
871.89	1828.63
872.06	1922.02
872.23	2937.61
872.40	3224.12
872.57	2015.00
872.74	1867.54
872.91	3619.78
873.07	3167.39
873.24	1760.02
873.41	1692.03
873.58	2977.54
873.75	3498.34
873.92	1947.21
874.08	2024.42
874.25	2438.52
874.42	3042.46
874.59	1936.97
874.76	1804.67
874.93	2849.34
875.09	3253.61
875.26	1884.75
875.43	2039.98
875.60	2944.16
875.77	3228.42
875.93	1791.56
876.10	1813.07
876.27	2994.34
876.44	3088.13
876.61	1901.54
876.77	1682.00
876.94	2827.22
877.11	3564.28
877.28	1792.38
877.45	1717.43
877.61	3418.47
877.78	3160.43
877.95	1759.41
878.12	1723.98
878.29	3165.14
878.45	3683.27
878.62	1672.17
878.79	2086.27
878.96	3046.15
879.13	3107.79
879.29	1892.32
879.46	1825.35
879.63	3130.73
879.80	3513.09
879.96	1709.03
880.13	1950.90
880.30	2843.20
880.47	3306.65
880.63	1950.28
880.80	2175.35
880.97	2985.94
881.14	3194.83
881.30	2059.64
881.47	1954.38
881.64	3358.05
881.81	3410.69
881.97	1892.32
882.14	2063.53
882.31	3125.81
882.48	3384.27
882.64	1993.29
882.81	2004.55
882.98	3096.53
883.15	2986.76
883.31	1855.25
883.48	2099.37
883.65	2991.06
883.82	3558.35
883.98	1872.46
884.15	1956.01
884.32	3146.29
884.48	3414.37
884.65	1907.27
884.82	2035.27
884.99	3275.32
885.15	3274.50
885.32	1843.38
885.49	2002.71
885.65	3045.74
>>>>>End Processed Spectral Data<<<<<
