SpectraSuite Data File
++++++++++++++++++++++++++++++++++++
Date: Fri Nov 20 23:26:28 GMT 2020
User: Jason
Dark Spectrum Present: No
Reference Spectrum Present: No
Number of Sampled Component Spectra: 1
Spectrometers: USB4C01509
Integration Time (usec): 1000000 (USB4C01509)
Spectra Averaged: 10 (USB4C01509)
Boxcar Smoothing: 0 (USB4C01509)
Correct for Electrical Dark: No (USB4C01509)
Strobe/Lamp Enabled: No (USB4C01509)
Correct for Detector Non-linearity: No (USB4C01509)
Correct for Stray Light: No (USB4C01509)
Number of Pixels in Processed Spectrum: 3648
>>>>>Begin Processed Spectral Data<<<<<
179.08	1232.47
179.29	1232.47
179.50	1232.47
179.72	1197.04
179.93	1202.36
180.15	2516.13
180.36	2101.42
180.58	3485.85
180.79	3329.59
181.00	1994.72
181.22	2020.12
181.43	3359.08
181.65	3629.41
181.86	2226.76
182.08	1771.29
182.29	3593.37
182.50	3206.30
182.72	1905.43
182.93	2351.48
183.15	3307.47
183.36	3572.68
183.57	1814.71
183.79	2130.91
184.00	3179.47
184.22	3380.58
184.43	1983.87
184.65	2162.45
184.86	3208.35
185.07	3193.19
185.29	1780.09
185.50	1908.30
185.72	3426.25
185.93	3390.62
186.14	1985.51
186.36	1938.40
186.57	3009.08
186.79	3923.70
187.00	2059.44
187.21	2170.85
187.43	3556.71
187.64	3305.01
187.86	1944.55
188.07	2369.50
188.28	3118.44
188.50	3702.93
188.71	2263.42
188.93	1951.10
189.14	2915.69
189.35	2827.63
189.57	1963.39
189.78	2011.51
190.00	3078.92
190.21	3298.25
190.42	1897.24
190.64	1799.14
190.85	3294.98
191.07	3524.96
191.28	1906.66
191.49	2149.55
191.71	3219.61
191.92	3359.49
192.14	1805.08
192.35	2261.57
192.56	3294.16
192.78	3462.91
192.99	1959.09
193.20	2256.25
193.42	3426.87
193.63	3466.60
193.85	2211.19
194.06	1918.33
194.27	2912.01
194.49	3666.48
194.70	2141.56
194.91	1926.52
195.13	3046.97
195.34	3125.20
195.56	1994.52
195.77	2078.07
195.98	3450.62
196.20	3265.08
196.41	2026.87
196.62	2102.85
196.84	2914.05
197.05	3308.49
197.27	1874.30
197.48	2056.16
197.69	2807.77
197.91	3045.12
198.12	1972.19
198.33	1674.42
198.55	3876.40
198.76	3493.83
198.97	1882.29
199.19	1970.76
199.40	3008.47
199.61	3451.65
199.83	1950.28
200.04	1878.40
200.26	3083.63
200.47	3588.86
200.68	1957.86
200.90	1902.56
201.11	3401.27
201.32	3543.19
201.54	1780.09
201.75	2012.54
201.96	2816.57
202.18	2898.49
202.39	2204.23
202.60	1958.47
202.82	2685.91
203.03	3191.76
203.24	2097.94
203.46	2236.38
203.67	3148.96
203.88	3474.99
204.10	1954.38
204.31	1882.90
204.52	3426.66
204.74	3447.35
204.95	2029.54
205.16	2106.34
205.38	3417.45
205.59	3664.02
205.80	1969.12
206.02	1850.54
206.23	3830.11
206.44	3139.54
206.66	2024.62
206.87	1932.87
207.08	3086.08
207.30	3757.20
207.51	2149.14
207.72	2267.51
207.94	3253.40
208.15	3458.81
208.36	2112.89
208.58	2057.59
208.79	3282.07
209.00	3529.06
209.22	2020.53
209.43	2018.89
209.64	3159.61
209.86	3070.93
210.07	2073.36
210.28	1843.99
210.50	3193.19
210.71	3662.18
210.92	1992.88
211.13	1965.23
211.35	2750.83
211.56	3299.48
211.77	2104.08
211.99	1904.41
212.20	3042.67
212.41	3012.15
212.63	1857.92
212.84	2051.45
213.05	3731.19
213.27	3514.72
213.48	1900.31
213.69	2036.09
213.90	2405.13
214.12	3266.31
214.33	1817.98
214.54	2130.09
214.76	2893.78
214.97	3529.26
215.18	1831.91
215.40	2568.77
215.61	3372.19
215.82	3404.54
216.03	1825.76
216.25	1991.44
216.46	2854.66
216.67	3670.37
216.89	1846.04
217.10	1886.18
217.31	2760.25
217.52	3228.62
217.74	1948.23
217.95	2017.86
218.16	2886.61
218.38	3598.28
218.59	1847.27
218.80	2003.94
219.01	3162.88
219.23	3557.53
219.44	1840.10
219.65	1965.23
219.87	2539.07
220.08	3352.32
220.29	1889.25
220.50	2110.64
220.72	3434.85
220.93	3185.41
221.14	1953.97
221.35	2054.73
221.57	2936.79
221.78	3649.48
221.99	1913.21
222.21	1841.53
222.42	3044.72
222.63	3525.37
222.84	1884.95
223.06	2153.23
223.27	3219.41
223.48	4116.62
223.69	1793.82
223.91	2091.18
224.12	3102.26
224.33	3606.06
224.54	2168.39
224.76	1986.94
224.97	3160.63
225.18	3357.64
225.39	2040.39
225.61	2028.10
225.82	3215.93
226.03	3694.33
226.24	1829.25
226.46	2286.35
226.67	2522.07
226.88	3288.01
227.09	2151.60
227.31	2057.39
227.52	3247.87
227.73	3466.80
227.94	2000.25
228.16	2036.09
228.37	2999.66
228.58	3530.90
228.79	2055.75
229.01	2041.62
229.22	3086.29
229.43	3366.45
229.64	2231.06
229.86	2057.59
230.07	3264.46
230.28	3795.30
230.49	2141.97
230.71	1957.04
230.92	3230.67
231.13	3758.84
231.34	1987.96
231.55	2062.51
231.77	2795.07
231.98	3544.21
232.19	1882.49
232.40	1943.73
232.62	2750.01
232.83	3108.41
233.04	2116.99
233.25	2097.73
233.46	2898.49
233.68	3499.57
233.89	2269.56
234.10	2157.74
234.31	3158.17
234.53	3711.33
234.74	1921.81
234.95	2075.41
235.16	2986.55
235.37	3478.47
235.59	1709.03
235.80	2145.25
236.01	2764.96
236.22	3380.99
236.44	2026.87
236.65	1834.98
236.86	2820.67
237.07	3450.62
237.28	1972.60
237.50	1961.75
237.71	2662.15
237.92	5257.34
238.13	1841.33
238.34	2114.73
238.56	2599.08
238.77	3629.62
238.98	1881.47
239.19	1937.17
239.40	3120.90
239.62	3941.11
239.83	2157.33
240.04	2072.95
240.25	3068.88
240.46	3264.87
240.68	1837.44
240.89	1859.76
241.10	3325.08
241.31	3295.80
241.52	1799.96
241.73	1824.74
241.95	3189.51
242.16	3761.91
242.37	1903.59
242.58	2068.04
242.79	3088.34
243.01	3263.44
243.22	2120.67
243.43	1747.74
243.64	3100.62
243.85	3527.22
244.06	1939.63
244.28	1902.97
244.49	3309.52
244.70	3802.46
244.91	2009.47
245.12	2004.55
245.34	3053.11
245.55	3288.22
245.76	1852.80
245.97	1874.51
246.18	3173.94
246.39	3223.09
246.61	2041.82
246.82	2018.27
247.03	3061.51
247.24	3193.19
247.45	1915.26
247.66	1991.24
247.88	2630.82
248.09	3318.12
248.30	1864.47
248.51	1782.14
248.72	3147.32
248.93	3222.68
249.15	1892.73
249.36	2309.08
249.57	3303.58
249.78	3505.92
249.99	1996.77
250.20	1876.14
250.41	3052.29
250.63	3309.11
250.84	1739.34
251.05	1955.20
251.26	2962.39
251.47	3072.16
251.68	2142.18
251.89	2184.16
252.11	2476.61
252.32	3228.21
252.53	1848.50
252.74	1983.87
252.95	3336.14
253.16	2725.03
253.37	1907.27
253.59	1978.34
253.80	3255.86
254.01	3325.29
254.22	1897.65
254.43	2279.80
254.64	3066.22
254.85	3410.07
255.07	1888.64
255.28	1896.83
255.49	2838.48
255.70	3557.94
255.91	1860.78
256.12	1847.27
256.33	3216.33
256.54	3582.72
256.76	1853.82
256.97	1883.11
257.18	2939.86
257.39	3297.02
257.60	2147.91
257.81	1938.20
258.02	3257.09
258.23	3513.29
258.45	2171.05
258.66	1893.96
258.87	3676.92
259.08	3587.43
259.29	1924.27
259.50	1979.98
259.71	3336.55
259.92	3726.69
260.13	1826.58
260.35	1993.70
260.56	3026.69
260.77	3617.12
260.98	1881.67
261.19	1968.30
261.40	2907.91
261.61	2670.55
261.82	1806.72
262.03	1905.84
262.25	3200.16
262.46	3557.73
262.67	2115.96
262.88	2027.08
263.09	3228.01
263.30	2935.76
263.51	1729.10
263.72	2073.57
263.93	3451.44
264.14	3739.59
264.36	1867.13
264.57	2125.59
264.78	3599.31
264.99	3416.01
265.20	1880.04
265.41	2221.43
265.62	2867.16
265.83	3624.50
266.04	2103.26
266.25	1933.90
266.46	3462.50
266.67	3319.14
266.89	1733.20
267.10	1881.67
267.31	3317.09
267.52	3217.56
267.73	1983.05
267.94	2025.03
268.15	3019.53
268.36	3535.20
268.57	1803.03
268.78	1964.21
268.99	2798.96
269.20	2904.63
269.41	1912.39
269.63	1826.38
269.84	2912.01
270.05	3533.97
270.26	1938.61
270.47	1936.56
270.68	3252.58
270.89	3645.59
271.10	1901.33
271.31	1955.61
271.52	2945.80
271.73	3261.39
271.94	1945.98
272.15	1990.01
272.36	2827.02
272.57	3593.16
272.78	2086.88
273.00	1935.13
273.21	2892.35
273.42	3395.53
273.63	1938.40
273.84	2003.53
274.05	2988.81
274.26	3250.54
274.47	2126.82
274.68	2328.75
274.89	3167.39
275.10	3168.00
275.31	2235.15
275.52	2230.44
275.73	3099.60
275.94	3242.75
276.15	2193.17
276.36	2065.17
276.57	2915.69
276.78	2947.23
276.99	2073.36
277.20	2021.55
277.41	3095.30
277.63	3063.56
277.84	2055.75
278.05	1955.81
278.26	2903.61
278.47	3023.01
278.68	2256.45
278.89	1880.85
279.10	3029.97
279.31	3117.42
279.52	2068.24
279.73	2095.69
279.94	3079.74
280.15	3515.54
280.36	2126.20
280.57	2273.45
280.78	3142.20
280.99	3109.23
281.20	2240.07
281.41	1998.61
281.62	2916.72
281.83	3121.92
282.04	2032.61
282.25	2228.19
282.46	3145.07
282.67	2718.47
282.88	2059.44
283.09	2044.90
283.30	3209.78
283.51	3194.42
283.72	2231.88
283.93	2199.31
284.14	3154.28
284.35	3024.24
284.56	1974.24
284.77	2126.41
284.98	2760.66
285.19	3194.83
285.40	2179.65
285.61	2167.16
285.82	3022.39
286.03	3220.84
286.24	1951.51
286.45	2044.28
286.66	2776.23
286.87	3288.83
287.08	2174.94
287.29	2013.15
287.50	3282.89
287.71	3208.55
287.92	2019.30
288.13	2055.96
288.34	2850.57
288.55	3078.30
288.76	1971.37
288.97	2167.98
289.18	2926.14
289.39	3072.16
289.60	1879.22
289.81	2204.02
290.02	2968.94
290.23	2976.52
290.44	2146.48
290.65	2112.89
290.86	2719.09
291.07	3149.78
291.28	2286.97
291.49	1991.24
291.70	3001.30
291.91	2610.96
292.12	2053.91
292.33	1929.60
292.54	3425.02
292.75	3259.14
292.96	2176.58
293.17	2206.89
293.38	3143.84
293.58	3312.79
293.79	1899.49
294.00	2250.92
294.21	2806.33
294.42	3466.60
294.63	2044.49
294.84	2077.66
295.05	3085.47
295.26	3468.85
295.47	1906.45
295.68	1924.68
295.89	2918.97
296.10	3332.25
296.31	2055.34
296.52	2289.42
296.73	2806.95
296.94	3135.24
297.15	2106.13
297.36	2300.07
297.57	2677.72
297.78	3128.27
297.98	2139.10
298.19	2430.12
298.40	3110.45
298.61	2980.41
298.82	2127.02
299.03	2429.51
299.24	3120.08
299.45	3590.29
299.66	1916.90
299.87	2047.35
300.08	2896.24
300.29	3094.07
300.50	1998.61
300.71	2255.63
300.92	3075.03
301.13	3000.89
301.33	2064.15
301.54	2217.95
301.75	2849.13
301.96	3148.14
302.17	2031.79
302.38	1973.22
302.59	3029.56
302.80	3304.81
303.01	2413.94
303.22	2395.30
303.43	3044.31
303.64	3161.65
303.85	2168.18
304.05	2146.89
304.26	3037.75
304.47	3067.45
304.68	2017.25
304.89	2178.22
305.10	2689.39
305.31	3057.41
305.52	2066.61
305.73	2033.63
305.94	2737.11
306.15	3126.63
306.35	2093.64
306.56	1963.39
306.77	2910.57
306.98	2965.46
307.19	2089.75
307.40	2134.80
307.61	3064.58
307.82	3155.31
308.03	2220.61
308.24	2307.86
308.45	3185.41
308.65	3408.02
308.86	2089.75
309.07	2218.56
309.28	2942.52
309.49	2884.77
309.70	2130.30
309.91	1970.97
310.12	2899.10
310.33	3026.90
310.53	1899.08
310.74	2067.83
310.95	3292.52
311.16	3179.47
311.37	1956.22
311.58	2254.61
311.79	3140.15
312.00	2987.58
312.20	2046.33
312.41	1933.08
312.62	3053.73
312.83	3269.79
313.04	2048.99
313.25	2398.17
313.46	2864.08
313.67	3289.04
313.87	2104.70
314.08	2185.59
314.29	2984.30
314.50	3275.73
314.71	2107.77
314.92	1991.44
315.13	3307.26
315.34	3203.43
315.54	2069.06
315.75	1939.02
315.96	2837.46
316.17	3037.75
316.38	1861.19
316.59	1960.52
316.80	3089.36
317.00	3241.32
317.21	2298.23
317.42	2095.89
317.63	2742.23
317.84	2960.13
318.05	2293.32
318.26	2064.97
318.46	3326.11
318.67	2568.36
318.88	2089.95
319.09	2183.54
319.30	2745.30
319.51	3105.34
319.71	2038.96
319.92	2024.42
320.13	3047.38
320.34	2717.45
320.55	2087.49
320.76	2101.63
320.97	2957.88
321.17	3159.61
321.38	2033.43
321.59	2101.01
321.80	3219.61
322.01	2939.45
322.22	2178.42
322.42	1942.09
322.63	2574.09
322.84	3448.57
323.05	2258.09
323.26	2223.27
323.47	2403.09
323.67	3045.53
323.88	1985.71
324.09	2198.90
324.30	3030.99
324.51	3107.38
324.71	1925.50
324.92	1980.39
325.13	3052.70
325.34	3044.10
325.55	1931.85
325.76	2139.72
325.96	3145.07
326.17	3347.00
326.38	1857.30
326.59	2144.02
326.80	3091.00
327.00	2956.65
327.21	1937.58
327.42	2332.84
327.63	2831.52
327.84	3007.65
328.04	2210.37
328.25	1983.25
328.46	2948.05
328.67	3069.09
328.88	2129.07
329.08	2016.84
329.29	2688.98
329.50	3018.30
329.71	2154.67
329.92	2019.30
330.12	2759.02
330.33	3043.28
330.54	2012.33
330.75	2481.52
330.96	2994.34
331.16	3062.94
331.37	1851.16
331.58	2204.43
331.79	2885.38
332.00	3012.36
332.20	1778.05
332.41	2098.55
332.62	3015.02
332.83	2872.48
333.03	1945.57
333.24	2562.01
333.45	3223.09
333.66	2837.67
333.87	2129.07
334.07	2040.60
334.28	2850.57
334.49	3292.31
334.70	2137.26
334.90	1841.74
335.11	3104.11
335.32	2877.19
335.53	1986.94
335.74	2152.62
335.94	3240.09
336.15	3271.02
336.36	2237.41
336.57	2186.82
336.77	2806.54
336.98	2498.32
337.19	2147.50
337.40	1933.90
337.60	2858.96
337.81	3009.69
338.02	1847.27
338.23	1819.62
338.43	2721.75
338.64	2956.45
338.85	2151.19
339.06	1977.11
339.26	2958.09
339.47	2901.56
339.68	1931.23
339.89	2179.04
340.09	3056.39
340.30	2890.30
340.51	2037.11
340.72	1958.47
340.92	2989.22
341.13	2963.62
341.34	1946.39
341.55	1936.76
341.75	2964.43
341.96	2854.87
342.17	1948.64
342.38	2071.73
342.58	3129.50
342.79	3176.81
343.00	2134.19
343.20	1975.47
343.41	2622.42
343.62	3068.88
343.83	2269.56
344.03	2035.68
344.24	2543.58
344.45	3289.04
344.66	1871.84
344.86	2182.32
345.07	2874.73
345.28	3100.83
345.48	2224.71
345.69	2067.63
345.90	2822.31
346.11	3127.25
346.31	2183.34
346.52	2079.10
346.73	2890.50
346.93	2972.42
347.14	1859.15
347.35	1789.31
347.56	3127.25
347.76	3260.37
347.97	1958.06
348.18	2141.36
348.38	3064.17
348.59	3220.64
348.80	1967.69
349.01	1928.16
349.21	2840.33
349.42	2833.98
349.63	2103.26
349.83	2119.44
350.04	3106.15
350.25	3183.57
350.45	2054.11
350.66	1929.60
350.87	2889.48
351.08	3009.08
351.28	2041.01
351.49	1951.51
351.70	2808.58
351.90	3511.86
352.11	1958.47
352.32	2442.20
352.52	3041.03
352.73	3107.79
352.94	2088.52
353.14	2105.52
353.35	2442.82
353.56	3249.51
353.76	2103.47
353.97	2194.60
354.18	3263.64
354.39	3128.07
354.59	2041.01
354.80	1902.97
355.01	2953.17
355.21	3329.79
355.42	1992.88
355.63	2144.84
355.83	2706.60
356.04	2994.74
356.25	2337.76
356.45	2390.80
356.66	2846.27
356.87	2920.61
357.07	2037.52
357.28	2043.46
357.49	2890.09
357.69	2609.52
357.90	1776.20
358.11	1828.84
358.31	3428.09
358.52	3150.39
358.72	2016.63
358.93	1888.23
359.14	3250.74
359.34	3254.63
359.55	2014.18
359.76	2031.18
359.96	2602.35
360.17	2538.46
360.38	2123.74
360.58	1971.17
360.79	3289.45
361.00	3207.12
361.20	1904.82
361.41	2039.57
361.62	2754.72
361.82	3171.28
362.03	2074.18
362.23	2033.63
362.44	2998.84
362.65	3313.82
362.85	2172.49
363.06	2228.19
363.27	2829.47
363.47	3184.80
363.68	2075.62
363.89	1987.14
364.09	3049.22
364.30	3263.23
364.50	2057.39
364.71	2203.61
364.92	2680.18
365.12	3131.34
365.33	2041.82
365.54	2092.20
365.74	2954.81
365.95	3008.26
366.15	2108.79
366.36	2215.29
366.57	3313.61
366.77	3197.29
366.98	2002.71
367.18	2102.44
367.39	3030.79
367.60	3195.04
367.80	1912.39
368.01	2126.61
368.22	2880.06
368.42	3350.27
368.63	2066.40
368.83	2123.33
369.04	2640.04
369.25	3407.00
369.45	1997.59
369.66	2300.69
369.86	2973.04
370.07	2936.38
370.28	1866.31
370.48	2308.47
370.69	2738.34
370.89	2924.50
371.10	1867.54
371.31	2157.33
371.51	2895.01
371.72	3863.29
371.92	2138.08
372.13	2200.95
372.33	3216.13
372.54	3064.99
372.75	1970.76
372.95	2077.66
373.16	2809.40
373.36	2811.25
373.57	2045.31
373.78	2183.34
373.98	3341.06
374.19	3093.25
374.39	1999.43
374.60	1987.14
374.80	3241.93
375.01	2955.83
375.22	1903.59
375.42	2137.87
375.63	2856.71
375.83	3294.77
376.04	2180.47
376.24	1884.54
376.45	2880.06
376.66	2753.29
376.86	1940.25
377.07	2011.11
377.27	2645.77
377.48	3155.31
377.68	2090.77
377.89	1948.64
378.09	2865.93
378.30	3065.60
378.51	1957.65
378.71	2101.01
378.92	2615.46
379.12	3046.35
379.33	1928.98
379.53	2367.04
379.74	3034.07
379.94	2892.55
380.15	2048.99
380.36	2040.80
380.56	3029.97
380.77	2916.10
380.97	1995.13
381.18	2252.97
381.38	2837.87
381.59	2836.64
381.79	1969.33
382.00	2140.74
382.20	2800.80
382.41	3036.32
382.61	2138.28
382.82	1996.16
383.03	2624.06
383.23	3323.24
383.44	1950.90
383.64	1965.85
383.85	2925.11
384.05	2987.17
384.26	1892.73
384.46	2083.81
384.67	2989.83
384.87	2851.18
385.08	1916.49
385.28	2070.70
385.49	3018.09
385.69	2854.87
385.90	2575.94
386.10	1859.15
386.31	2893.98
386.51	3225.35
386.72	1922.43
386.92	2120.26
387.13	2913.65
387.33	3135.64
387.54	2240.48
387.74	1908.91
387.95	3008.88
388.15	2854.25
388.36	2208.73
388.56	1915.87
388.77	2707.01
388.97	3085.06
389.18	2162.86
389.38	2110.43
389.59	3107.79
389.79	3159.40
390.00	2041.82
390.20	2586.17
390.41	2833.16
390.61	2965.25
390.82	1956.83
391.02	2019.50
391.23	3011.13
391.43	3330.20
391.64	2040.19
391.84	1927.75
392.05	2730.15
392.25	3078.92
392.46	2024.21
392.66	1908.50
392.87	2954.81
393.07	3082.40
393.28	1927.34
393.48	2064.35
393.69	3323.03
393.89	2985.53
394.10	2228.19
394.30	2003.32
394.51	2933.72
394.71	3030.79
394.92	1952.74
395.12	2135.21
395.32	4131.57
395.53	2855.89
395.73	2091.39
395.94	1998.20
396.14	3017.48
396.35	3149.16
396.55	2262.19
396.76	1986.12
396.96	3134.42
397.17	2899.92
397.37	2167.37
397.58	2220.82
397.78	2706.80
397.98	3103.08
398.19	2030.15
398.39	2221.43
398.60	2437.90
398.80	2966.07
399.01	2443.23
399.21	2116.99
399.42	3038.78
399.62	3019.73
399.83	2050.84
400.03	1909.53
400.23	2618.74
400.44	3104.11
400.64	2068.24
400.85	2148.93
401.05	2955.83
401.26	2744.28
401.46	2167.16
401.66	2320.76
401.87	3025.46
402.07	2633.07
402.28	1985.30
402.48	2200.95
402.69	3110.05
402.89	3016.66
403.09	2082.37
403.30	1910.14
403.50	3144.66
403.71	2836.03
403.91	2095.28
404.12	2565.70
404.32	2636.55
404.52	2759.23
404.73	2270.38
404.93	1955.20
405.14	2225.53
405.34	3198.31
405.54	2003.32
405.75	2189.69
405.95	3223.30
406.16	3079.74
406.36	2207.51
406.57	2048.17
406.77	3005.19
406.97	3096.53
407.18	2079.30
407.38	1939.84
407.59	3023.21
407.79	2954.81
407.99	2111.25
408.20	2124.97
408.40	3167.80
408.61	2530.67
408.81	2119.85
409.01	2072.13
409.22	3351.71
409.42	3127.66
409.63	2059.85
409.83	2061.28
410.03	2650.69
410.24	3132.16
410.44	2099.58
410.64	2312.57
410.85	2881.29
411.05	3104.52
411.26	2118.62
411.46	1997.79
411.66	3171.28
411.87	3108.00
412.07	1984.07
412.28	2174.12
412.48	3146.91
412.68	2754.31
412.89	2095.89
413.09	2229.62
413.29	3116.19
413.50	3391.23
413.70	1990.22
413.91	2195.63
414.11	2990.44
414.31	3019.73
414.52	1991.24
414.72	1980.18
414.92	3140.56
415.13	3119.26
415.33	1963.18
415.53	2074.18
415.74	3271.43
415.94	3128.48
416.14	2055.14
416.35	1837.85
416.55	3048.20
416.76	3080.76
416.96	2104.90
417.16	2078.69
417.37	2982.05
417.57	3038.98
417.77	1875.32
417.98	2156.10
418.18	2840.74
418.38	3142.40
418.59	2013.97
418.79	1968.92
418.99	2729.33
419.20	3208.96
419.40	2030.15
419.60	2204.02
419.81	2921.22
420.01	3030.58
420.21	2283.89
420.42	2208.53
420.62	2890.09
420.82	2930.03
421.03	1957.65
421.23	2166.75
421.43	2692.67
421.64	2992.90
421.84	1858.53
422.04	2051.66
422.25	2897.26
422.45	2796.09
422.65	1886.59
422.86	2225.53
423.06	2521.66
423.26	2935.76
423.47	1984.28
423.67	2129.27
423.87	2904.63
424.08	2669.12
424.28	2019.09
424.48	2155.90
424.68	2959.31
424.89	3006.62
425.09	2128.86
425.29	2165.32
425.50	2753.29
425.70	2845.24
425.90	2217.54
426.11	2001.48
426.31	3227.60
426.51	3102.06
426.71	2173.92
426.92	2166.34
427.12	3132.57
427.32	2961.98
427.53	2144.22
427.73	2298.64
427.93	3207.94
428.14	3293.75
428.34	2004.35
428.54	2177.40
428.74	2987.37
428.95	3300.30
429.15	1964.82
429.35	2082.78
429.56	2592.11
429.76	2887.43
429.96	2128.25
430.16	2094.46
430.37	2939.86
430.57	3037.14
430.77	2157.13
430.97	2137.06
431.18	2881.29
431.38	3155.31
431.58	2325.26
431.79	2080.12
431.99	3075.64
432.19	3196.26
432.39	2626.72
432.60	2204.84
432.80	3067.65
433.00	3402.70
433.20	2061.08
433.41	2153.85
433.61	3140.56
433.81	2933.72
434.01	2195.42
434.22	2168.39
434.42	3432.81
434.62	2951.94
434.82	2211.81
435.03	2043.46
435.23	3014.41
435.43	3436.70
435.63	2057.39
435.84	2096.71
436.04	2938.63
436.24	3336.96
436.44	2208.73
436.65	2311.75
436.85	3013.18
437.05	2932.08
437.25	2061.49
437.46	1995.75
437.66	2988.40
437.86	3246.03
438.06	2190.71
438.27	2196.45
438.47	3090.38
438.67	3074.62
438.87	2091.39
439.08	2223.07
439.28	3004.57
439.48	3260.37
439.68	2308.88
439.88	2341.85
440.09	3181.31
440.29	3016.45
440.49	2018.27
440.69	2386.91
440.90	3092.23
441.10	3128.07
441.30	2165.11
441.50	2177.40
441.70	3195.86
441.91	3166.77
442.11	2435.44
442.31	2303.76
442.51	2691.65
442.71	3292.52
442.92	2341.03
443.12	2271.20
443.32	3369.52
443.52	3339.83
443.73	2348.00
443.93	2492.58
444.13	3198.93
444.33	3477.25
444.53	2407.18
444.74	2361.10
444.94	3033.86
445.14	3463.93
445.34	2410.87
445.54	2472.10
445.74	3045.74
445.95	3667.91
446.15	2467.19
446.35	2556.07
446.55	3516.98
446.75	3480.11
446.96	2349.63
447.16	2268.94
447.36	2949.89
447.56	3583.54
447.76	2317.07
447.97	2282.67
448.17	3254.63
448.37	3258.11
448.57	2577.78
448.77	2827.43
448.97	3248.28
449.18	3417.45
449.38	2272.22
449.58	2461.86
449.78	3096.53
449.98	3373.41
450.18	2320.96
450.39	2400.83
450.59	3245.62
450.79	3179.06
450.99	2773.56
451.19	2186.82
451.39	3355.39
451.60	3354.16
451.80	2232.08
452.00	2486.85
452.20	3223.50
452.40	3342.08
452.60	2359.67
452.80	2384.45
453.01	3169.23
453.21	3338.19
453.41	2341.44
453.61	2326.08
453.81	2763.73
454.01	3269.99
454.22	2420.49
454.42	2283.49
454.62	3320.58
454.82	3374.23
455.02	2298.44
455.22	2269.97
455.42	2950.71
455.62	3302.14
455.83	2285.12
456.03	2515.72
456.23	3043.28
456.43	3135.24
456.63	2221.02
456.83	2240.48
457.03	3478.07
457.24	3181.52
457.44	2093.84
457.64	2360.90
457.84	3057.00
458.04	3454.51
458.24	2247.03
458.44	2278.16
458.64	2848.31
458.84	3221.45
459.05	2411.69
459.25	2333.66
459.45	2958.70
459.65	3254.63
459.85	2584.95
460.05	2419.06
460.25	3032.84
460.45	3078.71
460.65	2332.64
460.86	2200.75
461.06	3040.21
461.26	3113.73
461.46	2202.59
461.66	2220.82
461.86	3337.37
462.06	3464.75
462.26	2132.75
462.46	2268.94
462.66	3091.00
462.87	2842.99
463.07	1977.72
463.27	2137.26
463.47	3081.37
463.67	3164.73
463.87	2080.12
464.07	4082.01
464.27	2973.86
464.47	3181.72
464.67	2262.60
464.87	2242.32
465.08	3098.17
465.28	2906.48
465.48	2114.32
465.68	2213.65
465.88	3361.54
466.08	3197.49
466.28	2071.52
466.48	2165.93
466.68	3047.38
466.88	3212.65
467.08	2155.49
467.28	2212.22
467.48	2962.59
467.68	3119.47
467.89	2271.61
468.09	2191.74
468.29	2833.57
468.49	3292.93
468.69	2141.77
468.89	2174.33
469.09	2971.19
469.29	3231.29
469.49	1879.63
469.69	2207.92
469.89	3115.57
470.09	3158.58
470.29	2078.48
470.49	2695.95
470.69	3126.22
470.89	3164.52
471.09	2045.92
471.29	2212.22
471.49	3036.93
471.70	3518.41
471.90	2243.96
472.10	2130.30
472.30	2852.00
472.50	2833.77
472.70	2072.13
472.90	2419.88
473.10	3358.05
473.30	3131.34
473.50	2057.80
473.70	2063.33
473.90	3372.39
474.10	3217.97
474.30	1887.41
474.50	2025.44
474.70	3438.95
474.90	2930.44
475.10	2091.80
475.30	2092.20
475.50	2765.58
475.70	3116.19
475.90	2244.78
476.10	2213.65
476.30	2847.09
476.50	3131.14
476.70	2102.85
476.90	2237.61
477.10	2968.53
477.30	3077.28
477.50	2043.26
477.70	2265.26
477.90	3179.06
478.10	3343.31
478.30	2249.08
478.50	2097.94
478.70	2835.62
478.90	3242.14
479.10	1998.20
479.30	2171.46
479.50	3107.18
479.70	3422.77
479.90	2178.42
480.10	2322.40
480.30	3054.55
480.50	3209.58
480.70	2098.96
480.90	2193.58
481.10	2772.13
481.30	3105.13
481.50	2075.82
481.70	2287.79
481.90	3043.49
482.10	3222.89
482.30	2111.87
482.50	8763.67
482.70	2662.97
482.90	2876.37
483.10	2300.48
483.30	2130.50
483.50	3322.01
483.70	3324.06
483.90	2166.34
484.10	2118.83
484.30	3225.55
484.50	3077.28
484.70	2359.87
484.90	2209.14
485.10	3011.13
485.30	2715.20
485.50	2249.69
485.69	2227.78
485.89	3330.41
486.09	3301.94
486.29	2458.38
486.49	2198.90
486.69	3117.21
486.89	3314.23
487.09	2204.23
487.29	2276.73
487.49	2899.72
487.69	3292.93
487.89	2186.82
488.09	2185.18
488.29	2700.86
488.49	3084.04
488.69	2372.98
488.89	2291.06
489.09	3024.44
489.29	3118.44
489.48	2061.28
489.68	2066.40
489.88	3115.98
490.08	3469.46
490.28	2323.83
490.48	2210.78
490.68	3230.67
490.88	3476.43
491.08	2152.01
491.28	2577.37
491.48	3115.98
491.68	3157.76
491.88	2249.69
492.08	2227.37
492.27	3355.80
492.47	3312.59
492.67	2275.50
492.87	2253.79
493.07	3360.10
493.27	3245.42
493.47	2245.19
493.67	2299.87
493.87	3446.73
494.07	3230.06
494.27	2188.87
494.46	2343.90
494.66	3277.98
494.86	3177.22
495.06	2109.20
495.26	2126.61
495.46	2988.19
495.66	2782.17
495.86	2070.29
496.06	2464.94
496.26	2901.77
496.45	3200.36
496.65	2155.69
496.85	2093.02
497.05	3073.80
497.25	3383.24
497.45	2179.65
497.65	2155.08
497.85	3252.79
498.05	3070.93
498.24	2420.90
498.44	2074.39
498.64	2818.00
498.84	3361.54
499.04	2059.85
499.24	2600.10
499.44	3246.64
499.64	3292.52
499.83	2170.44
500.03	2306.42
500.23	3377.31
500.43	3590.29
500.63	2089.95
500.83	2390.18
501.03	3231.90
501.22	3230.26
501.42	2423.98
501.62	2236.59
501.82	2957.68
502.02	3186.84
502.22	2367.45
502.42	2348.20
502.62	2787.49
502.81	3025.87
503.01	2112.89
503.21	2261.37
503.41	3424.61
503.61	3452.26
503.81	2236.18
504.00	2368.89
504.20	3086.29
504.40	3261.60
504.60	2580.03
504.80	2491.35
505.00	3367.07
505.20	3336.76
505.39	2149.14
505.59	2495.86
505.79	3139.95
505.99	3464.55
506.19	2548.49
506.39	2419.27
506.58	3295.59
506.78	3269.17
506.98	2555.46
507.18	2546.65
507.38	3158.99
507.57	3118.24
507.77	2042.85
507.97	2348.82
508.17	3324.67
508.37	3169.44
508.57	2183.13
508.76	2384.45
508.96	3041.64
509.16	3554.04
509.36	2160.61
509.56	2326.29
509.75	3383.45
509.95	2707.62
510.15	2282.87
510.35	2401.45
510.55	3037.14
510.75	3155.51
510.94	2417.83
511.14	2314.61
511.34	3204.05
511.54	2807.36
511.74	2239.25
511.93	2718.68
512.13	3450.62
512.33	3253.20
512.53	2157.13
512.72	2297.41
512.92	3225.14
513.12	3475.81
513.32	2572.86
513.52	2187.23
513.71	3202.20
513.91	3389.80
514.11	2624.68
514.31	2333.87
514.51	3234.36
514.70	3345.15
514.90	2685.91
515.10	2396.33
515.30	2994.74
515.49	3389.80
515.69	2418.86
515.89	2460.63
516.09	3227.80
516.29	3605.65
516.48	2736.09
516.68	2440.56
516.88	3319.96
517.08	3483.59
517.27	2290.04
517.47	2374.41
517.67	3370.75
517.87	3345.77
518.06	2429.10
518.26	2331.82
518.46	3020.14
518.66	3441.61
518.85	2471.69
519.05	2419.47
519.25	3415.19
519.45	2970.58
519.64	2362.54
519.84	2535.79
520.04	3162.06
520.24	3379.76
520.43	2457.97
520.63	2470.67
520.83	2884.15
521.03	3296.21
521.22	2506.10
521.42	2376.87
521.62	3336.55
521.82	3414.58
522.01	2419.68
522.21	2583.31
522.41	3048.81
522.61	3410.48
522.80	2321.17
523.00	2539.89
523.20	3254.84
523.39	3598.90
523.59	2503.23
523.79	2443.23
523.99	3164.93
524.18	3492.40
524.38	2472.31
524.58	2531.08
524.77	3315.46
524.97	3185.82
525.17	2353.94
525.37	2497.09
525.56	3593.78
525.76	3446.32
525.96	2497.09
526.15	2338.58
526.35	3339.42
526.55	3461.68
526.75	2455.51
526.94	2638.60
527.14	2988.81
527.34	3563.06
527.53	2535.39
527.73	2403.50
527.93	3281.46
528.12	3295.39
528.32	2374.21
528.52	2579.42
528.72	3422.97
528.91	3431.17
529.11	2516.54
529.31	2499.14
529.50	3675.28
529.70	3185.21
529.90	2463.09
530.09	2338.17
530.29	3475.61
530.49	3335.32
530.68	2387.93
530.88	2734.04
531.08	3555.68
531.27	3341.88
531.47	2435.44
531.67	2511.42
531.86	3457.38
532.06	3145.27
532.26	2438.31
532.45	2957.68
532.65	3000.27
532.85	2980.61
533.04	2337.35
533.24	2523.92
533.44	3251.15
533.63	3349.66
533.83	2492.58
534.03	2902.79
534.22	3291.09
534.42	3268.76
534.62	2512.24
534.81	2468.42
535.01	2953.17
535.21	3624.90
535.40	2374.41
535.60	2980.41
535.80	2978.98
535.99	3498.95
536.19	2585.56
536.38	2453.47
536.58	3468.44
536.78	3357.03
536.97	2571.22
537.17	2621.60
537.37	3218.38
537.56	3456.36
537.76	2408.41
537.96	2467.60
538.15	3666.48
538.35	3730.38
538.54	2406.36
538.74	2612.18
538.94	3445.09
539.13	3454.92
539.33	2553.41
539.53	2484.19
539.72	3249.31
539.92	3526.40
540.11	2359.87
540.31	2522.28
540.51	3408.84
540.70	3661.97
540.90	2506.30
541.10	2409.84
541.29	3624.09
541.49	3318.32
541.68	2511.83
541.88	2650.28
542.08	3608.11
542.27	3385.70
542.47	2454.70
542.66	2515.52
542.86	3095.50
543.06	3649.48
543.25	2664.00
543.45	2946.82
543.64	3499.98
543.84	3484.62
544.04	2329.77
544.23	2741.21
544.43	3600.74
544.62	3663.61
544.82	2352.50
545.01	2532.52
545.21	3656.03
545.41	3456.77
545.60	2371.96
545.80	2620.58
545.99	3598.90
546.19	3615.07
546.39	2755.54
546.58	2561.60
546.78	3421.54
546.97	3493.63
547.17	2515.93
547.36	2594.57
547.56	3556.71
547.76	3569.00
547.95	2600.92
548.15	2556.48
548.34	3382.83
548.54	3436.90
548.73	2551.77
548.93	2545.22
549.12	3553.23
549.32	3112.71
549.52	2796.71
549.71	2504.26
549.91	3485.64
550.10	3298.05
550.30	2601.94
550.49	2355.98
550.69	3275.73
550.88	3478.07
551.08	2491.56
551.28	2555.25
551.47	3749.42
551.67	3298.46
551.86	2444.66
552.06	2832.96
552.25	3313.61
552.45	3729.35
552.64	2654.58
552.84	2890.30
553.03	3391.85
553.23	3898.92
553.42	2375.23
553.62	2633.28
553.81	3511.24
554.01	3589.88
554.21	2479.27
554.40	2490.74
554.60	3376.08
554.79	3254.22
554.99	2680.59
555.18	2709.46
555.38	3303.58
555.57	7097.03
555.77	2596.41
555.96	2687.34
556.16	3588.45
556.35	3686.55
556.55	2313.80
556.74	2472.92
556.94	3332.66
557.13	3567.15
557.33	2698.61
557.52	2556.27
557.72	3572.27
557.91	3738.77
558.11	2824.56
558.30	2662.56
558.50	3390.82
558.69	3564.08
558.89	2570.61
559.08	2442.61
559.28	3137.49
559.47	3610.77
559.67	2458.59
559.86	2708.85
560.06	3097.35
560.25	3503.46
560.45	3032.02
560.64	2644.75
560.84	3480.11
561.03	3638.83
561.23	2388.14
561.42	2243.96
561.62	3445.91
561.81	3678.97
562.00	2561.39
562.20	2946.21
562.39	3387.14
562.59	3506.74
562.78	2680.59
562.98	2541.73
563.17	3654.40
563.37	3323.85
563.56	2372.57
563.76	2496.88
563.95	3391.85
564.15	3481.75
564.34	2421.93
564.54	2631.44
564.73	3600.12
564.92	3805.74
565.12	2586.58
565.31	2655.19
565.51	3712.76
565.70	3648.66
565.90	2574.91
566.09	2816.16
566.29	3552.41
566.48	3822.53
566.67	2771.11
566.87	2551.97
567.06	3578.01
567.26	3350.48
567.45	2387.73
567.65	2424.59
567.84	3709.90
568.03	3786.90
568.23	2455.72
568.42	2881.29
568.62	3314.84
568.81	3603.40
569.01	2635.53
569.20	2327.31
569.39	3635.96
569.59	3724.23
569.78	2438.52
569.98	2598.87
570.17	3629.21
570.37	3412.33
570.56	2741.21
570.75	2502.41
570.95	3738.57
571.14	3736.72
571.34	2348.20
571.53	2306.22
571.72	3506.33
571.92	3620.19
572.11	2719.29
572.31	2887.84
572.50	3414.17
572.69	3063.35
572.89	2674.44
573.08	2589.45
573.28	3640.67
573.47	3756.38
573.66	2409.84
573.86	2493.40
574.05	3044.72
574.25	3730.38
574.44	2423.16
574.63	2552.79
574.83	3437.72
575.02	3509.40
575.22	2412.30
575.41	2588.22
575.60	3681.84
575.80	3583.95
575.99	2554.84
576.18	2411.89
576.38	3239.27
576.57	3868.41
576.77	2376.26
576.96	2369.70
577.15	3481.55
577.35	3861.45
577.54	2923.48
577.73	2419.27
577.93	3551.59
578.12	3668.32
578.31	2474.56
578.51	2463.50
578.70	3044.92
578.90	3932.30
579.09	2347.79
579.28	2701.27
579.48	3170.67
579.67	3768.47
579.86	2481.73
580.06	2516.34
580.25	3726.89
580.44	3929.85
580.64	2314.82
580.83	2349.43
581.02	3721.98
581.22	3634.73
581.41	2589.86
581.60	2510.20
581.80	3434.85
581.99	3848.13
582.18	2640.86
582.38	2796.09
582.57	3008.06
582.76	4048.83
582.96	2647.41
583.15	2642.29
583.34	3442.23
583.54	3487.08
583.73	2454.70
583.92	2532.52
584.12	3300.71
584.31	3698.43
584.50	2609.93
584.70	2978.98
584.89	3520.66
585.08	3980.64
585.28	2814.32
585.47	2714.79
585.66	3506.53
585.86	3775.43
586.05	3046.97
586.24	2837.67
586.43	3980.64
586.63	3963.23
586.82	2899.31
587.01	2917.95
587.21	3700.68
587.40	4435.90
587.59	3128.89
587.79	3133.80
587.98	4367.50
588.17	4311.18
588.36	3437.93
588.56	4074.23
588.75	4750.88
588.94	4877.24
589.14	4307.90
589.33	4067.27
589.52	5565.76
589.71	6045.40
589.91	5068.72
590.10	5371.00
590.29	7017.16
590.49	7324.77
590.68	6574.39
590.87	6981.12
591.06	8434.15
591.26	8723.94
591.45	8207.03
591.64	8668.03
591.84	9999.82
592.03	11001.28
592.22	9907.87
592.41	10410.23
592.61	11469.85
592.80	11940.07
592.99	11409.03
593.18	11751.24
593.38	12833.39
593.57	13189.94
593.76	12592.14
593.95	12722.80
594.15	13991.52
594.34	14404.18
594.53	13429.15
594.72	13495.29
594.92	14407.87
595.11	14747.63
595.30	13591.75
595.49	13613.26
595.69	14544.67
595.88	14864.98
596.07	13788.56
596.26	14010.56
596.46	14927.44
596.65	14826.88
596.84	14060.33
597.03	14050.91
597.22	15044.99
597.42	15735.36
597.61	13866.18
597.80	13967.15
597.99	15395.20
598.19	15048.88
598.38	14024.29
598.57	14176.24
598.76	15165.21
598.95	15225.21
599.15	14256.73
599.34	14006.88
599.53	15107.87
599.72	14792.68
599.92	14005.24
600.11	14051.93
600.30	15248.56
600.49	15313.48
600.68	13993.36
600.88	14138.77
601.07	14984.17
601.26	15247.13
601.45	13975.34
601.64	14250.59
601.84	15275.80
602.03	15299.56
602.22	14029.20
602.41	13985.37
602.60	15195.52
602.80	15161.11
602.99	14277.00
603.18	14044.15
603.37	14705.64
603.56	14612.67
603.76	13708.69
603.95	13748.01
604.14	14714.25
604.33	15016.73
604.52	13745.35
604.71	13597.90
604.91	14079.38
605.10	14923.14
605.29	13543.22
605.48	13450.65
605.67	14453.54
605.86	14544.06
606.06	13592.98
606.25	13255.27
606.44	14133.44
606.63	13897.52
606.82	13422.80
607.01	13230.70
607.21	14240.76
607.40	13993.98
607.59	13191.99
607.78	13290.09
607.97	13957.73
608.16	14140.41
608.36	12794.28
608.55	12549.13
608.74	13400.27
608.93	13407.03
609.12	12274.91
609.31	12004.58
609.50	12596.03
609.70	12919.00
609.89	11321.99
610.08	11172.69
610.27	11583.52
610.46	11496.68
610.65	10268.31
610.84	9818.99
611.03	10877.17
611.23	10087.27
611.42	8673.97
611.61	8298.57
611.80	9002.87
611.99	8489.65
612.18	7072.86
612.37	6451.92
612.56	7088.22
612.76	6730.03
612.95	5517.02
613.14	5087.56
613.33	5904.50
613.52	5604.27
613.71	4134.23
613.90	4285.99
614.09	4464.98
614.29	4471.33
614.48	3551.18
614.67	3173.33
614.86	4149.80
615.05	4566.15
615.24	2999.46
615.43	3051.88
615.62	4293.77
615.81	3725.05
616.00	2805.92
616.20	2829.06
616.39	3768.47
616.58	3418.67
616.77	2529.04
616.96	2506.92
617.15	3760.07
617.34	3455.54
617.53	2551.56
617.72	2490.33
617.91	3167.39
618.10	3498.55
618.29	2341.03
618.49	2333.25
618.68	3513.09
618.87	3487.08
619.06	2354.14
619.25	2342.47
619.44	3080.76
619.63	3098.78
619.82	2478.66
620.01	2248.87
620.20	3243.57
620.39	3602.38
620.58	2292.70
620.77	2468.01
620.96	3551.79
621.16	3403.93
621.35	2357.42
621.54	2493.61
621.73	3795.50
621.92	3542.78
622.11	2524.12
622.30	2376.05
622.49	3350.07
622.68	3378.53
622.87	2462.89
623.06	2384.86
623.25	3606.06
623.44	3685.93
623.63	2213.85
623.82	2376.67
624.01	3335.53
624.20	3551.38
624.39	2624.68
624.58	2527.81
624.77	3224.53
624.96	3413.55
625.15	2193.78
625.34	2314.41
625.53	3367.48
625.72	3640.06
625.92	2364.38
626.11	2439.34
626.30	3597.26
626.49	3462.09
626.68	2370.73
626.87	2443.02
627.06	3628.59
627.25	3503.05
627.44	2464.12
627.63	2488.28
627.82	2714.79
628.01	3333.07
628.20	2237.61
628.39	2347.79
628.58	3238.66
628.77	3810.25
628.96	2209.55
629.15	2307.65
629.34	3252.99
629.53	3411.51
629.72	2700.45
629.91	2749.19
630.10	3641.70
630.29	3386.73
630.48	2250.51
630.67	2386.91
630.86	3319.55
631.05	3347.20
631.24	2122.51
631.43	2314.41
631.62	3025.05
631.81	3648.66
632.00	2333.66
632.19	2540.91
632.37	3750.04
632.56	3292.93
632.75	2321.58
632.94	2664.00
633.13	3589.27
633.32	3223.30
633.51	2160.61
633.70	2238.23
633.89	3378.53
634.08	3422.36
634.27	2168.18
634.46	2530.67
634.65	3239.07
634.84	3560.60
635.03	2412.92
635.22	2452.03
635.41	3375.46
635.60	3558.14
635.79	2207.51
635.98	2306.42
636.17	3129.09
636.36	3232.10
636.55	2164.09
636.74	2326.49
636.92	3596.44
637.11	3373.41
637.30	2399.20
637.49	2380.76
637.68	3087.93
637.87	3484.41
638.06	2413.53
638.25	2278.77
638.44	3023.62
638.63	3257.29
638.82	2132.75
639.01	2182.93
639.20	3056.59
639.39	3388.36
639.58	2237.61
639.76	2243.96
639.95	3380.58
640.14	3200.98
640.33	2140.95
640.52	2202.80
640.71	3130.53
640.90	3328.15
641.09	2247.85
641.28	2214.88
641.47	3409.05
641.66	3384.68
641.84	2123.54
642.03	2133.78
642.22	3061.51
642.41	2979.38
642.60	2217.75
642.79	2155.28
642.98	3224.94
643.17	3170.05
643.36	2162.65
643.55	2222.66
643.73	2957.27
643.92	3518.41
644.11	2152.21
644.30	2483.16
644.49	3417.86
644.68	3612.00
644.87	2236.38
645.06	2564.26
645.25	2869.41
645.43	3410.69
645.62	2335.71
645.81	2200.13
646.00	3377.71
646.19	3265.28
646.38	2422.34
646.57	2187.64
646.76	3141.17
646.94	3577.19
647.13	2134.80
647.32	2287.99
647.51	3354.57
647.70	2977.13
647.89	1969.94
648.08	2181.91
648.26	3063.56
648.45	3511.04
648.64	2183.34
648.83	2129.48
649.02	2891.53
649.21	3124.38
649.40	2229.83
649.58	2194.81
649.77	2982.87
649.96	3405.57
650.15	1998.61
650.34	2052.68
650.53	3090.18
650.71	3027.51
650.90	2231.88
651.09	2507.12
651.28	3222.89
651.47	2995.36
651.66	2426.43
651.84	2242.53
652.03	3637.60
652.22	3397.17
652.41	2220.82
652.60	2235.77
652.79	3054.14
652.97	3296.00
653.16	2087.70
653.35	2241.50
653.54	3093.66
653.73	3717.88
653.91	2111.46
654.10	2183.75
654.29	2975.70
654.48	3439.15
654.67	2304.78
654.86	2195.42
655.04	3008.67
655.23	3201.18
655.42	2190.51
655.61	2454.90
655.80	3099.60
655.98	3374.64
656.17	2178.63
656.36	2171.05
656.55	3736.72
656.73	3160.43
656.92	2115.55
657.11	2214.47
657.30	3459.02
657.49	3642.31
657.67	2169.62
657.86	2398.38
658.05	3037.14
658.24	2949.69
658.43	2031.58
658.61	2152.82
658.80	3084.86
658.99	3159.61
659.18	2067.01
659.36	1992.26
659.55	2650.69
659.74	3164.32
659.93	2113.09
660.12	2147.30
660.30	3497.32
660.49	3240.50
660.68	2115.76
660.87	2441.59
661.05	3068.06
661.24	3074.62
661.43	2150.98
661.62	2486.44
661.80	2829.47
661.99	3120.90
662.18	2147.70
662.37	2361.92
662.55	3238.04
662.74	3642.52
662.93	2214.26
663.12	2070.29
663.30	3364.61
663.49	3064.79
663.68	2007.83
663.87	2367.86
664.05	2977.34
664.24	2884.97
664.43	1958.06
664.61	2153.23
664.80	3254.43
664.99	2972.83
665.18	2145.25
665.36	2312.36
665.55	3069.91
665.74	3030.99
665.93	2073.16
666.11	2134.60
666.30	3121.31
666.49	3130.12
666.67	1936.15
666.86	2345.54
667.05	3502.03
667.24	3151.62
667.42	2151.80
667.61	2461.66
667.80	2986.76
667.98	3068.06
668.17	2131.53
668.36	2154.67
668.54	3095.71
668.73	3290.47
668.92	2491.76
669.11	2132.75
669.29	3215.52
669.48	3417.45
669.67	2181.09
669.85	2274.68
670.04	2978.98
670.23	3206.10
670.41	2208.32
670.60	2199.52
670.79	3309.11
670.97	3285.76
671.16	2225.32
671.35	1962.98
671.53	3111.89
671.72	2953.99
671.91	2070.70
672.10	2024.42
672.28	3293.54
672.47	3798.98
672.66	2304.99
672.84	2315.64
673.03	3263.44
673.22	3417.45
673.40	2167.57
673.59	2286.97
673.78	3074.00
673.96	3367.68
674.15	2095.48
674.33	2287.79
674.52	2800.60
674.71	3153.67
674.89	2028.92
675.08	2072.34
675.27	2619.97
675.45	3142.40
675.64	2194.19
675.83	2096.92
676.01	3079.53
676.20	2862.65
676.39	2040.19
676.57	2088.11
676.76	3096.94
676.94	3288.83
677.13	1967.28
677.32	2209.55
677.50	3352.32
677.69	3330.41
677.88	2075.21
678.06	2532.31
678.25	3231.29
678.44	3305.22
678.62	2026.47
678.81	2353.53
678.99	2977.54
679.18	3445.50
679.37	2045.10
679.55	2206.69
679.74	3199.95
679.92	3054.14
680.11	2081.76
680.30	2327.52
680.48	2830.91
680.67	3055.57
680.85	2243.14
681.04	2295.77
681.23	2751.04
681.41	3679.38
681.60	2200.54
681.78	2129.89
681.97	2731.79
682.16	3090.38
682.34	2195.42
682.53	2217.54
682.71	3031.20
682.90	2931.05
683.09	1933.90
683.27	2097.12
683.46	3304.40
683.64	3228.83
683.83	2116.17
684.02	1967.28
684.20	3014.41
684.39	3020.34
684.57	2536.61
684.76	2254.61
684.94	3074.82
685.13	2917.95
685.32	2090.16
685.50	2145.25
685.69	3145.07
685.87	3374.44
686.06	2050.43
686.24	2180.06
686.43	2811.86
686.61	3335.12
686.80	2094.46
686.99	2172.89
687.17	2978.57
687.36	3140.56
687.54	2010.08
687.73	1998.20
687.91	3312.59
688.10	3130.73
688.28	2067.83
688.47	1996.36
688.66	2832.34
688.84	3081.17
689.03	1914.03
689.21	1886.18
689.40	2866.75
689.58	3005.80
689.77	2395.30
689.95	2096.71
690.14	3143.84
690.32	3406.80
690.51	1922.22
690.69	1985.51
690.88	2968.53
691.06	3362.76
691.25	2111.05
691.43	2330.18
691.62	2791.18
691.80	3114.55
691.99	2162.25
692.18	2052.88
692.36	3393.48
692.55	3115.78
692.73	1934.10
692.92	2050.43
693.10	3199.75
693.29	3159.40
693.47	2185.80
693.66	2116.37
693.84	2648.23
694.03	2777.25
694.21	2190.10
694.40	1953.97
694.58	2709.05
694.77	2900.95
694.95	1944.14
695.14	2005.58
695.32	3230.06
695.50	3183.98
695.69	2023.19
695.87	2288.61
696.06	2990.44
696.24	3098.99
696.43	2230.03
696.61	1988.99
696.80	2918.97
696.98	3087.93
697.17	1940.45
697.35	2438.11
697.54	2971.40
697.72	3148.96
697.91	2128.45
698.09	2200.54
698.28	2705.98
698.46	3024.03
698.65	2101.22
698.83	2187.23
699.01	2746.33
699.20	3621.22
699.38	2100.60
699.57	2278.16
699.75	2697.58
699.94	2949.48
700.12	2068.04
700.31	2118.42
700.49	3125.81
700.67	3361.13
700.86	2273.86
701.04	1979.36
701.23	3019.93
701.41	3088.34
701.60	2037.73
701.78	1987.14
701.97	2876.99
702.15	3251.36
702.33	2084.01
702.52	2061.89
702.70	3002.32
702.89	3197.29
703.07	2320.35
703.26	2004.14
703.44	2433.60
703.62	3098.99
703.81	2062.30
703.99	1940.45
704.18	2768.44
704.36	2794.45
704.54	2018.68
704.73	2048.38
704.91	2723.80
705.10	3113.53
705.28	1995.54
705.46	2121.70
705.65	3170.46
705.83	3347.00
706.02	2187.44
706.20	2105.93
706.38	2993.93
706.57	2910.57
706.75	2259.73
706.94	2310.93
707.12	2576.55
707.30	3149.78
707.49	1978.95
707.67	1949.05
707.86	3061.92
708.04	3126.43
708.22	2205.87
708.41	2086.68
708.59	2918.97
708.78	3327.74
708.96	2238.63
709.14	1924.89
709.33	3101.85
709.51	3171.48
709.69	2164.70
709.88	1981.20
710.06	2887.64
710.24	2969.55
710.43	1918.74
710.61	1979.98
710.80	2914.46
710.98	2875.76
711.16	2078.69
711.35	2112.07
711.53	3228.01
711.71	2708.03
711.90	2062.51
712.08	1961.34
712.26	3072.16
712.45	3066.01
712.63	1903.59
712.81	2017.45
713.00	2785.24
713.18	3219.00
713.36	2137.67
713.55	2142.18
713.73	3073.39
713.91	2863.88
714.10	2049.81
714.28	1949.46
714.46	3139.13
714.65	3368.91
714.83	2074.59
715.01	1928.78
715.20	3176.40
715.38	2953.17
715.56	2045.51
715.75	2205.87
715.93	3186.64
716.11	2845.04
716.30	2015.00
716.48	1930.82
716.66	2929.41
716.85	3147.73
717.03	1854.44
717.21	2223.68
717.40	2760.46
717.58	2966.69
717.76	2228.39
717.94	2011.51
718.13	2819.64
718.31	3068.68
718.49	2101.63
718.68	1916.90
718.86	3302.55
719.04	2907.50
719.23	2318.92
719.41	2140.33
719.59	2607.47
719.77	3188.89
719.96	1963.18
720.14	1926.93
720.32	3101.44
720.51	3063.76
720.69	1925.50
720.87	2255.02
721.05	2897.26
721.24	3465.98
721.42	2016.02
721.60	2331.20
721.78	3216.13
721.97	3422.77
722.15	1964.21
722.33	2376.26
722.51	2921.84
722.70	3274.50
722.88	1997.38
723.06	2146.68
723.25	2837.05
723.43	2980.41
723.61	2112.27
723.79	1848.70
723.98	2720.32
724.16	2908.32
724.34	2090.57
724.52	2173.10
724.71	2847.29
724.89	3084.65
725.07	2194.19
725.25	2033.22
725.43	2839.10
725.62	2848.31
725.80	2091.18
725.98	1960.32
726.16	2980.41
726.35	3097.55
726.53	2349.02
726.71	1988.37
726.89	2855.89
727.08	3174.56
727.26	2110.02
727.44	2041.01
727.62	2742.23
727.80	3319.96
727.99	1982.23
728.17	2092.00
728.35	2644.13
728.53	3090.38
728.71	2352.71
728.90	2022.98
729.08	3029.36
729.26	3045.12
729.44	1968.71
729.63	2359.06
729.81	2807.97
729.99	3116.39
730.17	1859.35
730.35	2131.53
730.53	3134.62
730.72	3051.06
730.90	2050.02
731.08	2154.87
731.26	3203.43
731.44	3221.66
731.63	2045.31
731.81	1958.68
731.99	3201.18
732.17	3303.78
732.35	2056.78
732.54	2240.07
732.72	2749.60
732.90	2963.00
733.08	2207.51
733.26	2188.05
733.44	3177.63
733.63	2962.39
733.81	2088.52
733.99	1996.16
734.17	3380.38
734.35	3166.77
734.53	2138.49
734.72	2108.79
734.90	3059.26
735.08	3075.23
735.26	1903.79
735.44	2333.05
735.62	3303.78
735.80	3307.88
735.99	1978.13
736.17	2101.22
736.35	3356.83
736.53	2928.19
736.71	2128.66
736.89	1933.69
737.07	2876.58
737.26	3125.00
737.44	1810.40
737.62	1919.36
737.80	2935.56
737.98	2706.60
738.16	2153.64
738.34	1999.64
738.53	2726.46
738.71	3030.58
738.89	2040.39
739.07	2063.94
739.25	3154.90
739.43	2942.11
739.61	1788.08
739.79	2212.63
739.97	3223.91
740.16	3210.19
740.34	2159.99
740.52	2351.68
740.70	3102.06
740.88	3276.34
741.06	1993.90
741.24	1931.44
741.42	3183.16
741.60	3020.75
741.79	1976.90
741.97	1882.08
742.15	3016.45
742.33	3365.63
742.51	1992.47
742.69	2041.21
742.87	2833.77
743.05	3123.97
743.23	1971.78
743.41	2271.20
743.59	3327.33
743.77	2981.02
743.96	1912.80
744.14	2280.00
744.32	2720.93
744.50	3208.14
744.68	1903.38
744.86	2049.40
745.04	2973.04
745.22	3006.42
745.40	1973.83
745.58	1928.57
745.76	3224.94
745.94	3202.61
746.12	2044.49
746.30	1995.34
746.49	2711.92
746.67	3391.03
746.85	2190.10
747.03	2060.26
747.21	2782.17
747.39	3022.60
747.57	2148.11
747.75	2150.78
747.93	3092.64
748.11	2965.05
748.29	2148.93
748.47	2399.40
748.65	2958.91
748.83	2910.98
749.01	2178.42
749.19	1893.96
749.37	3219.41
749.55	2968.33
749.73	2027.49
749.91	2115.55
750.09	3263.64
750.27	3087.31
750.45	1907.89
750.63	2077.66
750.81	2610.96
750.99	3245.83
751.17	1990.42
751.35	1960.73
751.53	2903.20
751.71	3126.43
751.89	2174.33
752.07	2033.02
752.25	2284.51
752.44	3114.35
752.62	2104.49
752.80	1937.99
752.98	2621.60
753.16	3092.02
753.34	2325.47
753.51	2099.99
753.69	3205.48
753.87	2955.42
754.05	1899.29
754.23	2071.93
754.41	2726.05
754.59	3052.50
754.77	2378.51
754.95	2065.79
755.13	2945.18
755.31	2918.36
755.49	2188.46
755.67	2028.92
755.85	3011.13
756.03	3222.27
756.21	1774.97
756.39	2086.27
756.57	3115.98
756.75	3355.60
756.93	1987.14
757.11	1977.72
757.29	3112.71
757.47	3258.73
757.65	1912.60
757.83	2182.73
758.01	2825.99
758.19	2985.12
758.37	2134.19
758.55	2103.88
758.73	2774.79
758.91	3137.69
759.09	2189.28
759.27	2412.51
759.44	3333.48
759.62	2843.60
759.80	2235.77
759.98	1931.85
760.16	2998.43
760.34	3299.07
760.52	1785.83
760.70	2153.64
760.88	3221.86
761.06	3119.47
761.24	2340.01
761.42	1991.65
761.60	3081.17
761.78	3205.07
761.95	1925.30
762.13	2217.34
762.31	3203.43
762.49	2991.67
762.67	2147.91
762.85	2251.33
763.03	3145.07
763.21	3081.58
763.39	2013.36
763.57	1994.93
763.75	2933.72
763.92	3184.39
764.10	1991.85
764.28	2133.78
764.46	3357.03
764.64	2911.60
764.82	2278.98
765.00	1929.60
765.18	3184.18
765.36	3042.67
765.54	1924.07
765.71	2159.99
765.89	2721.75
766.07	3136.67
766.25	2028.92
766.43	2124.36
766.61	2939.86
766.79	3353.34
766.97	2374.41
767.14	2031.79
767.32	3061.10
767.50	3042.26
767.68	2066.81
767.86	2158.15
768.04	2867.77
768.22	3320.78
768.40	1951.71
768.57	2211.60
768.75	3403.11
768.93	3156.53
769.11	2219.18
769.29	1913.83
769.47	2840.74
769.65	3404.54
769.82	2441.18
770.00	2062.92
770.18	2870.43
770.36	3019.32
770.54	1951.10
770.72	1995.75
770.89	3221.05
771.07	2996.38
771.25	2115.76
771.43	1987.96
771.61	2697.17
771.79	3019.73
771.96	2016.43
772.14	2140.74
772.32	2851.18
772.50	3195.04
772.68	2147.91
772.86	1991.85
773.03	3164.73
773.21	3139.95
773.39	1981.61
773.57	1831.91
773.75	2847.70
773.92	2956.04
774.10	1894.99
774.28	1887.82
774.46	3352.93
774.64	3218.79
774.82	2222.66
774.99	1999.23
775.17	2575.94
775.35	2935.15
775.53	2063.53
775.71	2078.48
775.88	2892.76
776.06	3116.60
776.24	2043.05
776.42	1975.06
776.59	2874.94
776.77	2894.60
776.95	2121.70
777.13	1995.34
777.31	3053.32
777.48	3095.91
777.66	2148.11
777.84	1856.07
778.02	2916.31
778.19	3315.66
778.37	2200.54
778.55	2088.31
778.73	2685.71
778.91	3095.30
779.08	1934.10
779.26	1941.27
779.44	2974.67
779.62	3106.56
779.79	1991.44
779.97	1841.94
780.15	3194.22
780.33	3125.61
780.50	2105.93
780.68	2109.20
780.86	3071.54
781.04	3111.68
781.21	2112.27
781.39	2119.65
781.57	3434.24
781.75	3042.87
781.92	1972.81
782.10	2474.15
782.28	3108.82
782.46	3063.15
782.63	1997.79
782.81	2213.24
782.99	2828.65
783.16	3139.54
783.34	1963.80
783.52	2285.12
783.70	2911.39
783.87	3146.70
784.05	1941.68
784.23	2115.76
784.41	3089.98
784.58	3155.31
784.76	2115.35
784.94	2055.34
785.11	2756.98
785.29	3165.75
785.47	2066.81
785.65	2353.53
785.82	3334.71
786.00	3129.09
786.18	2146.89
786.35	2272.22
786.53	3007.44
786.71	2940.47
786.88	1964.82
787.06	1925.71
787.24	3028.54
787.41	2960.95
787.59	2223.27
787.77	2084.01
787.95	3103.08
788.12	3128.48
788.30	2232.08
788.48	2190.30
788.65	3003.55
788.83	2726.87
789.01	2019.09
789.18	2139.92
789.36	3186.02
789.54	2757.39
789.71	1960.11
789.89	1974.86
790.07	3130.73
790.24	2889.48
790.42	1991.85
790.60	2107.97
790.77	3095.50
790.95	2822.72
791.13	2002.09
791.30	2109.41
791.48	2858.76
791.66	2929.62
791.83	2039.98
792.01	2025.85
792.18	2785.03
792.36	2856.92
792.54	1810.20
792.71	2079.30
792.89	2827.22
793.07	2960.95
793.24	2301.30
793.42	2001.48
793.60	3066.01
793.77	2857.53
793.95	1912.80
794.12	2280.00
794.30	3255.25
794.48	3154.69
794.65	1829.86
794.83	2240.07
795.01	3061.30
795.18	3008.06
795.36	2194.60
795.53	2005.17
795.71	2831.32
795.89	3113.12
796.06	2005.78
796.24	2155.49
796.41	3088.34
796.59	2875.14
796.77	2084.42
796.94	1953.56
797.12	2826.61
797.29	9003.28
797.47	2008.24
797.65	2095.07
797.82	2981.64
798.00	3086.70
798.17	2058.41
798.35	2088.31
798.53	3467.21
798.70	3030.38
798.88	2126.00
799.05	1954.99
799.23	3018.30
799.40	3163.50
799.58	1883.11
799.76	1913.21
799.93	2881.29
800.11	3289.24
800.28	2136.24
800.46	1999.23
800.63	2738.95
800.81	3263.23
800.99	1856.48
801.16	2404.52
801.34	3102.06
801.51	2955.63
801.69	1954.38
801.86	2016.23
802.04	2377.90
802.21	2869.82
802.39	1904.61
802.57	2628.16
802.74	2522.48
802.92	2858.76
803.09	1902.56
803.27	1960.11
803.44	2929.82
803.62	2755.13
803.79	1973.83
803.97	2087.70
804.14	3120.49
804.32	3189.92
804.49	2023.39
804.67	1971.99
804.84	2978.16
805.02	3015.22
805.20	2056.98
805.37	1936.15
805.55	3094.89
805.72	3006.21
805.90	2092.00
806.07	2026.67
806.25	2340.42
806.42	3176.81
806.60	1877.37
806.77	1922.84
806.95	3069.09
807.12	3266.31
807.30	2130.30
807.47	2116.99
807.65	2984.71
807.82	3475.81
808.00	2024.01
808.17	2459.61
808.35	2981.64
808.52	2970.78
808.70	2031.18
808.87	1977.72
809.05	2704.34
809.22	3062.74
809.40	1965.64
809.57	2207.10
809.75	3181.93
809.92	3222.48
810.09	2018.27
810.27	1975.47
810.44	2911.60
810.62	3307.88
810.79	2123.33
810.97	2013.77
811.14	3234.97
811.32	3034.07
811.49	2282.87
811.67	2123.95
811.84	3284.33
812.02	2833.57
812.19	2160.61
812.36	2296.80
812.54	3222.27
812.71	3304.40
812.89	2023.39
813.06	2131.12
813.24	3054.34
813.41	2861.42
813.59	2069.68
813.76	1877.37
813.93	2877.40
814.11	3163.29
814.28	2118.62
814.46	2300.89
814.63	2964.43
814.81	3214.08
814.98	2048.38
815.16	1969.53
815.33	2920.61
815.50	3259.55
815.68	1950.08
815.85	1993.70
816.03	3057.82
816.20	3354.78
816.37	1981.41
816.55	2037.11
816.72	3389.39
816.90	3285.76
817.07	1919.77
817.24	2033.22
817.42	2982.05
817.59	2997.61
817.77	2084.83
817.94	1888.23
818.11	3322.83
818.29	3143.43
818.46	2093.84
818.64	1789.72
818.81	2794.25
818.98	2984.71
819.16	2043.46
819.33	2009.06
819.51	3174.35
819.68	3162.06
819.85	2229.42
820.03	2012.13
820.20	3291.09
820.38	3292.72
820.55	1973.42
820.72	2145.04
820.90	2932.49
821.07	3027.51
821.24	2041.82
821.42	1998.41
821.59	3100.22
821.76	3254.43
821.94	1890.68
822.11	2333.46
822.29	3152.44
822.46	2706.80
822.63	1990.83
822.81	2216.52
822.98	2973.45
823.15	3183.57
823.33	1979.98
823.50	1983.05
823.67	3357.64
823.85	3055.36
824.02	1851.36
824.19	1905.23
824.37	2829.06
824.54	3021.78
824.71	2014.59
824.89	2100.19
825.06	3071.95
825.23	3425.43
825.41	1981.41
825.58	1837.85
825.75	2945.18
825.93	2980.00
826.10	2049.61
826.27	2152.82
826.45	3009.08
826.62	2995.77
826.79	1995.54
826.97	1980.80
827.14	2854.05
827.31	3252.17
827.48	1958.27
827.66	2266.49
827.83	2914.26
828.00	3136.05
828.18	2139.51
828.35	2031.18
828.52	2917.74
828.70	3104.11
828.87	1825.76
829.04	2084.22
829.21	2820.67
829.39	3127.86
829.56	1927.55
829.73	1838.67
829.91	2869.20
830.08	2896.65
830.25	1866.72
830.42	1933.69
830.60	3346.79
830.77	3617.74
830.94	1761.25
831.11	1663.16
831.29	2613.00
831.46	3389.18
831.63	1815.93
831.81	1854.03
831.98	3079.94
832.15	3522.51
832.32	1743.03
832.50	1884.13
832.67	3138.31
832.84	3016.66
833.01	1716.20
833.19	1915.87
833.36	3193.19
833.53	3340.44
833.70	1748.97
833.88	2207.92
834.05	3712.56
834.22	3127.04
834.39	1733.20
834.57	1745.07
834.74	2810.43
834.91	2857.53
835.08	1804.06
835.25	1932.46
835.43	3075.03
835.60	3301.33
835.77	1924.68
835.94	1829.86
836.12	3220.64
836.29	3280.64
836.46	1866.31
836.63	1795.66
836.80	3296.82
836.98	3335.32
837.15	1937.99
837.32	1903.18
837.49	2852.41
837.66	3282.07
837.84	1842.35
838.01	1992.47
838.18	3528.24
838.35	3407.00
838.52	1805.49
838.70	1908.50
838.87	2859.37
839.04	3668.12
839.21	1735.45
839.38	1879.83
839.56	3095.10
839.73	3098.58
839.90	1722.75
840.07	1682.20
840.24	3015.02
840.42	3438.13
840.59	1699.61
840.76	2102.44
840.93	2707.82
841.10	3300.51
841.27	1895.40
841.45	2085.04
841.62	3041.03
841.79	3178.24
841.96	1839.08
842.13	1871.23
842.30	2940.88
842.48	3848.95
842.65	1913.62
842.82	1691.62
842.99	2897.88
843.16	3491.58
843.33	1933.90
843.50	1828.02
843.68	2500.77
843.85	3346.38
844.02	1701.04
844.19	2276.93
844.36	3275.11
844.53	3115.37
844.70	1953.56
844.88	2007.21
845.05	2924.70
845.22	3231.08
845.39	1717.22
845.56	2026.47
845.73	3125.20
845.90	3353.34
846.07	1804.67
846.25	1725.62
846.42	2749.81
846.59	3353.96
846.76	1891.09
846.93	1687.73
847.10	3210.60
847.27	3488.71
847.44	1848.50
847.61	1780.71
847.79	2662.36
847.96	3505.51
848.13	1674.42
848.30	1953.97
848.47	2673.01
848.64	2874.32
848.81	1758.18
848.98	1940.25
849.15	3564.08
849.32	3432.60
849.49	1774.56
849.67	1854.23
849.84	2943.55
850.01	3142.61
850.18	1794.23
850.35	1762.69
850.52	2754.52
850.69	3826.63
850.86	1833.96
851.03	2256.86
851.20	3196.06
851.37	3137.69
851.54	1865.09
851.71	1817.16
851.89	3234.36
852.06	3410.89
852.23	1916.90
852.40	1826.17
852.57	2895.21
852.74	3559.78
852.91	1763.10
853.08	1925.30
853.25	3401.47
853.42	3433.42
853.59	1636.74
853.76	1815.32
853.93	3276.75
854.10	3488.31
854.27	1683.02
854.44	1848.70
854.61	3060.48
854.78	3200.36
854.95	1928.16
855.12	1906.25
855.29	3083.63
855.46	3456.77
855.63	1745.48
855.80	1845.83
855.97	3040.00
856.14	3516.77
856.31	1787.47
856.49	2031.58
856.66	3163.29
856.83	3350.27
857.00	1943.93
857.17	1889.66
857.34	2934.33
857.51	3518.82
857.68	1740.16
857.85	1782.96
858.02	3056.80
858.19	3409.25
858.36	1879.83
858.53	1892.94
858.70	3548.93
858.87	3080.55
859.04	1753.68
859.21	1837.85
859.37	3142.40
859.54	3434.44
859.71	2013.97
859.88	2034.45
860.05	3302.96
860.22	3286.38
860.39	1712.92
860.56	1943.52
860.73	3064.79
860.90	3425.64
861.07	1855.05
861.24	1636.53
861.41	2822.31
861.58	3149.16
861.75	1737.29
861.92	1828.22
862.09	3045.33
862.26	3187.66
862.43	1927.14
862.60	2018.07
862.77	3175.17
862.94	3474.79
863.11	1797.50
863.28	1796.48
863.45	3222.48
863.62	2959.93
863.78	1863.45
863.95	1891.71
864.12	3062.94
864.29	3393.48
864.46	1873.69
864.63	1811.02
864.80	3264.46
864.97	3244.60
865.14	2020.12
865.31	1971.78
865.48	2901.77
865.65	3329.79
865.82	1664.18
865.99	2002.50
866.15	3496.09
866.32	3392.87
866.49	1727.46
866.66	1771.49
866.83	3338.39
867.00	3209.58
867.17	1650.25
867.34	1923.86
867.51	3111.07
867.68	3342.08
867.84	2017.04
868.01	2013.36
868.18	3121.92
868.35	3555.48
868.52	1731.76
868.69	1815.93
868.86	3041.64
869.03	3487.49
869.20	1725.00
869.36	1858.12
869.53	3212.03
869.70	3635.14
869.87	1851.36
870.04	1934.72
870.21	2893.37
870.38	3256.68
870.55	1717.22
870.71	1851.98
870.88	3250.33
871.05	3279.82
871.22	1984.69
871.39	1914.44
871.56	3527.83
871.73	2974.67
871.89	1800.37
872.06	1936.15
872.23	2944.36
872.40	3197.90
872.57	1987.96
872.74	1865.49
872.91	3599.10
873.07	3108.61
873.24	1782.14
873.41	1697.77
873.58	2978.36
873.75	3501.41
873.92	1938.81
874.08	2008.85
874.25	2447.94
874.42	3093.05
874.59	1917.31
874.76	1785.21
874.93	2868.59
875.09	3270.20
875.26	1863.04
875.43	2017.04
875.60	2941.50
875.77	3203.84
875.93	1794.64
876.10	1849.93
876.27	2968.33
876.44	3091.20
876.61	1922.84
876.77	1678.11
876.94	2833.57
877.11	3570.22
877.28	1803.65
877.45	1719.27
877.61	3425.84
877.78	3141.79
877.95	1771.49
878.12	1725.41
878.29	3148.55
878.45	3680.00
878.62	1680.77
878.79	2113.30
878.96	3040.82
879.13	3103.29
879.29	1897.44
879.46	1843.99
879.63	3160.22
879.80	3529.47
879.96	1728.69
880.13	1954.17
880.30	2811.45
880.47	3315.46
880.63	1970.56
880.80	2167.37
880.97	3005.80
881.14	3232.51
881.30	2061.49
881.47	1987.14
881.64	3351.71
881.81	3416.83
881.97	1884.13
882.14	2110.84
882.31	3116.60
882.48	3411.51
882.64	1999.64
882.81	2016.23
882.98	3079.33
883.15	2977.34
883.31	1851.98
883.48	2113.30
883.65	2987.99
883.82	3555.27
883.98	1905.84
884.15	1986.32
884.32	3152.44
884.48	3436.70
884.65	1931.85
884.82	2059.23
884.99	3283.71
885.15	3270.61
885.32	1813.89
885.49	2005.37
885.65	3059.67
>>>>>End Processed Spectral Data<<<<<
