SpectraSuite Data File
++++++++++++++++++++++++++++++++++++
Date: Fri Nov 20 23:27:38 GMT 2020
User: Jason
Dark Spectrum Present: No
Reference Spectrum Present: No
Number of Sampled Component Spectra: 1
Spectrometers: USB4C01509
Integration Time (usec): 1000000 (USB4C01509)
Spectra Averaged: 10 (USB4C01509)
Boxcar Smoothing: 0 (USB4C01509)
Correct for Electrical Dark: No (USB4C01509)
Strobe/Lamp Enabled: No (USB4C01509)
Correct for Detector Non-linearity: No (USB4C01509)
Correct for Stray Light: No (USB4C01509)
Number of Pixels in Processed Spectrum: 3648
>>>>>Begin Processed Spectral Data<<<<<
179.08	1186.18
179.29	1186.18
179.50	1186.18
179.72	1188.44
179.93	1197.65
180.15	2506.71
180.36	2084.42
180.58	3469.46
180.79	3330.82
181.00	1970.56
181.22	2046.94
181.43	3357.85
181.65	3635.14
181.86	2216.11
182.08	1805.49
182.29	3623.68
182.50	3189.10
182.72	1903.18
182.93	2369.50
183.15	3306.65
183.36	3545.65
183.57	1817.16
183.79	2140.74
184.00	3188.69
184.22	3432.81
184.43	2023.80
184.65	2182.32
184.86	3204.66
185.07	3216.74
185.29	1778.87
185.50	1943.73
185.72	3401.47
185.93	3390.62
186.14	1958.68
186.36	1964.82
186.57	3023.21
186.79	3894.01
187.00	2073.98
187.21	2151.19
187.43	3547.70
187.64	3312.79
187.86	1953.76
188.07	2367.66
188.28	3079.94
188.50	3719.73
188.71	2285.74
188.93	1967.48
189.14	2941.91
189.35	2855.07
189.57	1989.19
189.78	1981.20
190.00	3082.40
190.21	3301.12
190.42	1911.37
190.64	1821.46
190.85	3296.82
191.07	3515.75
191.28	1888.23
191.49	2183.75
191.71	3223.30
191.92	3354.37
192.14	1834.78
192.35	2281.23
192.56	3277.16
192.78	3491.99
192.99	1984.28
193.20	2297.62
193.42	3436.90
193.63	3471.31
193.85	2218.36
194.06	1923.45
194.27	2927.98
194.49	3672.42
194.70	2147.91
194.91	1928.98
195.13	3038.37
195.34	3110.45
195.56	1980.59
195.77	2082.17
195.98	3428.91
196.20	3277.57
196.41	2015.00
196.62	2125.59
196.84	2918.15
197.05	3284.33
197.27	1886.59
197.48	2081.15
197.69	2832.34
197.91	3028.33
198.12	1981.61
198.33	1706.98
198.55	3900.97
198.76	3493.02
198.97	1896.62
199.19	1966.66
199.40	3001.91
199.61	3480.11
199.83	1950.28
200.04	1865.29
200.26	3100.62
200.47	3611.80
200.68	1959.09
200.90	1899.70
201.11	3444.68
201.32	3581.28
201.54	1760.84
201.75	2034.04
201.96	2870.43
202.18	2920.81
202.39	2226.35
202.60	1965.85
202.82	2707.21
203.03	3176.81
203.24	2085.04
203.46	2198.70
203.67	3154.69
203.88	3514.31
204.10	2000.25
204.31	1892.32
204.52	3439.36
204.74	3461.27
204.95	2030.77
205.16	2089.54
205.38	3429.32
205.59	3681.22
205.80	1973.42
206.02	1837.03
206.23	3834.82
206.44	3149.57
206.66	2009.47
206.87	1955.40
207.08	3100.42
207.30	3730.99
207.51	2156.51
207.72	2228.80
207.94	3259.34
208.15	3504.48
208.36	2080.33
208.58	2047.97
208.79	3297.64
209.00	3510.01
209.22	1998.82
209.43	2014.18
209.64	3158.79
209.86	3052.09
210.07	2085.04
210.28	1852.80
210.50	3185.00
210.71	3685.32
210.92	1992.06
211.13	1987.96
211.35	2767.62
211.56	3274.29
211.77	2074.18
211.99	1936.56
212.20	2998.23
212.41	3037.55
212.63	1853.00
212.84	2053.91
213.05	3723.82
213.27	3506.12
213.48	1883.52
213.69	2033.63
213.90	2424.80
214.12	3313.61
214.33	1849.32
214.54	2139.31
214.76	2914.26
214.97	3509.81
215.18	1835.80
215.40	2585.36
215.61	3401.68
215.82	3400.24
216.03	1849.32
216.25	2011.72
216.46	2883.74
216.67	3643.34
216.89	1860.58
217.10	1868.98
217.31	2885.59
217.52	3256.88
217.74	1946.18
217.95	2030.36
218.16	2934.12
218.38	3599.92
218.59	1869.18
218.80	1994.11
219.01	3143.84
219.23	3583.33
219.44	1857.92
219.65	2000.46
219.87	2561.19
220.08	3360.31
220.29	1904.61
220.50	2119.44
220.72	3459.22
220.93	3194.01
221.14	1919.56
221.35	2073.77
221.57	2915.28
221.78	3649.07
221.99	1909.73
222.21	1854.64
222.42	3052.09
222.63	3524.35
222.84	1906.45
223.06	2157.33
223.27	3250.13
223.48	4130.34
223.69	1802.83
223.91	2127.43
224.12	3093.87
224.33	3606.88
224.54	2192.96
224.76	1989.19
224.97	3176.19
225.18	3374.23
225.39	2062.10
225.61	2038.75
225.82	3209.99
226.03	3710.51
226.24	1826.58
226.46	2284.10
226.67	2540.10
226.88	3297.84
227.09	2135.21
227.31	2065.58
227.52	3266.51
227.73	3454.72
227.94	2016.84
228.16	2055.34
228.37	2986.14
228.58	3550.15
228.79	2062.30
229.01	2026.67
229.22	3088.95
229.43	3357.64
229.64	2216.31
229.86	2069.47
230.07	3256.27
230.28	3800.83
230.49	2155.69
230.71	1971.17
230.92	3272.04
231.13	3774.82
231.34	1970.35
231.55	2082.17
231.77	2802.65
231.98	3542.17
232.19	1885.16
232.40	1941.47
232.62	2773.97
232.83	3098.37
233.04	2124.36
233.25	2098.35
233.46	2926.55
233.68	3518.21
233.89	2298.64
234.10	2170.03
234.31	3120.08
234.53	3752.90
234.74	1908.50
234.95	2075.41
235.16	2987.99
235.37	3528.85
235.59	1709.85
235.80	2177.61
236.01	2775.00
236.22	3365.84
236.44	2065.79
236.65	1849.32
236.86	2835.21
237.07	3435.06
237.28	1960.73
237.50	1992.67
237.71	2667.27
237.92	4428.12
238.13	1847.68
238.34	2115.55
238.56	2578.60
238.77	3665.04
238.98	1908.91
239.19	1923.45
239.40	3137.69
239.62	3958.72
239.83	2160.40
240.04	2083.81
240.25	3061.51
240.46	3250.54
240.68	1858.53
240.89	1888.23
241.10	3291.50
241.31	3298.87
241.52	1777.43
241.73	1818.19
241.95	3211.01
242.16	3766.01
242.37	1895.19
242.58	2069.47
242.79	3091.82
243.01	3274.91
243.22	2109.20
243.43	1749.99
243.64	3117.62
243.85	3527.63
244.06	1920.79
244.28	1891.30
244.49	3299.48
244.70	3790.38
244.91	1988.78
245.12	2004.14
245.34	3069.09
245.55	3298.46
245.76	1860.37
245.97	1870.61
246.18	3182.95
246.39	3202.61
246.61	2020.73
246.82	2011.92
247.03	3077.07
247.24	3254.84
247.45	1917.51
247.66	1969.74
247.88	2665.02
248.09	3339.62
248.30	1885.77
248.51	1782.14
248.72	3142.40
248.93	3237.43
249.15	1883.72
249.36	2328.54
249.57	3301.74
249.78	3508.17
249.99	2016.63
250.20	1895.60
250.41	3069.50
250.63	3298.46
250.84	1771.29
251.05	1960.52
251.26	2963.62
251.47	3088.95
251.68	2144.84
251.89	2200.34
252.11	2478.04
252.32	3159.40
252.53	1854.23
252.74	1998.61
252.95	3346.59
253.16	2717.86
253.37	1898.67
253.59	1997.79
253.80	3269.58
254.01	3367.48
254.22	1897.65
254.43	2309.08
254.64	3108.41
254.85	3419.90
255.07	1907.48
255.28	1856.69
255.49	2867.16
255.70	3526.40
255.91	1856.07
256.12	1855.46
256.33	3235.59
256.54	3622.65
256.76	1854.85
256.97	1882.49
257.18	2910.16
257.39	3286.58
257.60	2172.89
257.81	1929.39
258.02	3248.08
258.23	3543.19
258.45	2177.81
258.66	1921.81
258.87	3683.89
259.08	3596.44
259.29	1941.06
259.50	1988.58
259.71	3363.38
259.92	3712.56
260.13	1823.51
260.35	2003.32
260.56	3018.50
260.77	3601.76
260.98	1903.18
261.19	1966.66
261.40	2908.93
261.61	2697.99
261.82	1811.22
262.03	1949.46
262.25	3178.24
262.46	3578.21
262.67	2112.68
262.88	2037.52
263.09	3229.44
263.30	2949.89
263.51	1749.99
263.72	2091.59
263.93	3444.68
264.14	3723.82
264.36	1897.03
264.57	2142.99
264.78	3605.65
264.99	3412.12
265.20	1900.11
265.41	2219.18
265.62	2884.56
265.83	3679.59
266.04	2079.71
266.25	1936.15
266.46	3492.20
266.67	3331.84
266.89	1741.80
267.10	1854.85
267.31	3283.51
267.52	3192.99
267.73	1967.89
267.94	1994.11
268.15	3061.10
268.36	3565.31
268.57	1796.27
268.78	1915.47
268.99	2826.20
269.20	2908.12
269.41	1917.10
269.63	1820.64
269.84	2884.15
270.05	3533.77
270.26	1962.36
270.47	1973.01
270.68	3250.33
270.89	3644.57
271.10	1864.06
271.31	1948.64
271.52	2926.34
271.73	3290.47
271.94	1941.06
272.15	1976.49
272.36	2843.60
272.57	3627.16
272.78	2106.95
273.00	1942.50
273.21	2886.41
273.42	3433.42
273.63	1922.22
273.84	2003.32
274.05	3008.06
274.26	3245.62
274.47	2132.14
274.68	2342.47
274.89	3156.53
275.10	3195.04
275.31	2207.10
275.52	2212.42
275.73	3121.72
275.94	3261.80
276.15	2252.36
276.36	2071.11
276.57	2895.21
276.78	2948.46
276.99	2087.29
277.20	2051.86
277.41	3108.00
277.63	3086.70
277.84	2092.82
278.05	1963.18
278.26	2902.79
278.47	3012.97
278.68	2238.63
278.89	1898.06
279.10	3031.20
279.31	3120.29
279.52	2082.78
279.73	2102.24
279.94	3089.57
280.15	3531.93
280.36	2118.01
280.57	2271.40
280.78	3144.66
280.99	3121.72
281.20	2242.94
281.41	2018.48
281.62	2891.94
281.83	3135.24
282.04	2033.43
282.25	2241.91
282.46	3148.14
282.67	2739.98
282.88	2044.90
283.09	2064.56
283.30	3200.57
283.51	3208.76
283.72	2244.37
283.93	2212.83
284.14	3156.12
284.35	3002.73
284.56	1976.09
284.77	2101.01
284.98	2790.36
285.19	3219.00
285.40	2182.93
285.61	2155.69
285.82	3004.57
286.03	3229.24
286.24	1974.04
286.45	2011.31
286.66	2814.73
286.87	3313.61
287.08	2160.61
287.29	2004.14
287.50	3307.67
287.71	3211.22
287.92	2038.55
288.13	2069.47
288.34	2854.46
288.55	3073.80
288.76	1973.83
288.97	2193.37
289.18	2912.42
289.39	3056.80
289.60	1885.56
289.81	2200.95
290.02	2986.14
290.23	2979.38
290.44	2129.89
290.65	2120.47
290.86	2711.10
291.07	3144.45
291.28	2287.58
291.49	1997.18
291.70	2964.64
291.91	2596.21
292.12	2020.94
292.33	1956.83
292.54	3425.23
292.75	3301.53
292.96	2196.65
293.17	2210.99
293.38	3143.63
293.58	3291.50
293.79	1964.82
294.00	2261.37
294.21	2793.63
294.42	3472.13
294.63	2077.87
294.84	2067.22
295.05	3111.89
295.26	3486.67
295.47	1901.13
295.68	1918.13
295.89	2962.59
296.10	3321.81
296.31	2047.56
296.52	2279.39
296.73	2814.52
296.94	3131.96
297.15	2121.90
297.36	2281.03
297.57	2682.84
297.78	3113.53
297.98	2139.72
298.19	2463.91
298.40	3136.05
298.61	2956.04
298.82	2133.37
299.03	2393.05
299.24	3152.03
299.45	3614.26
299.66	1932.67
299.87	2069.27
300.08	2857.53
300.29	3106.36
300.50	2009.88
300.71	2236.79
300.92	3052.70
301.13	2965.87
301.33	2067.63
301.54	2261.98
301.75	2831.52
301.96	3164.52
302.17	2056.78
302.38	1992.88
302.59	3047.58
302.80	3294.16
303.01	2426.84
303.22	2352.50
303.43	3007.65
303.64	3190.12
303.85	2162.04
304.05	2142.18
304.26	3062.53
304.47	3036.93
304.68	2031.79
304.89	2156.92
305.10	2711.10
305.31	3057.21
305.52	2063.94
305.73	2033.02
305.94	2732.20
306.15	3144.04
306.35	2083.81
306.56	1971.99
306.77	2939.86
306.98	3009.69
307.19	2067.42
307.40	2146.27
307.61	3094.07
307.82	3160.83
308.03	2231.06
308.24	2342.06
308.45	3215.52
308.65	3422.57
308.86	2094.25
309.07	2252.56
309.28	2946.00
309.49	2847.50
309.70	2126.61
309.91	1984.28
310.12	2888.86
310.33	3050.45
310.53	1922.84
310.74	2062.92
310.95	3307.88
311.16	3170.46
311.37	1946.39
311.58	2291.88
311.79	3103.49
312.00	2984.91
312.20	2052.27
312.41	1955.61
312.62	3046.76
312.83	3284.12
313.04	2038.34
313.25	2396.33
313.46	2844.22
313.67	3297.23
313.87	2106.54
314.08	2215.49
314.29	2962.18
314.50	3303.78
314.71	2104.90
314.92	2009.26
315.13	3313.82
315.34	3193.40
315.54	2056.78
315.75	1944.34
315.96	2835.21
316.17	3018.50
316.38	1876.55
316.59	2006.80
316.80	3078.71
317.00	3276.55
317.21	2262.39
317.42	2055.34
317.63	2772.34
317.84	2985.53
318.05	2273.86
318.26	2060.26
318.46	3329.18
318.67	2579.42
318.88	2127.84
319.09	2200.13
319.30	2772.74
319.51	3130.73
319.71	2066.20
319.92	2058.00
320.13	3080.76
320.34	2735.47
320.55	2141.56
320.76	2159.58
320.97	3017.27
321.17	3213.06
321.38	2034.45
321.59	2162.25
321.80	3259.75
322.01	3014.20
322.22	2234.13
322.42	2003.53
322.63	2624.68
322.84	3475.20
323.05	2296.59
323.26	2303.76
323.47	2463.91
323.67	3098.37
323.88	2027.28
324.09	2206.69
324.30	3096.32
324.51	3182.13
324.71	1982.43
324.92	2061.08
325.13	3122.13
325.34	3047.58
325.55	2009.47
325.76	2216.11
325.96	3182.75
326.17	3410.28
326.38	1885.97
326.59	2219.38
326.80	3127.66
327.00	2998.02
327.21	2000.87
327.42	2378.10
327.63	2900.54
327.84	3066.83
328.04	2284.51
328.25	2071.52
328.46	3020.55
328.67	3092.02
328.88	2170.85
329.08	2039.37
329.29	2714.99
329.50	3038.78
329.71	2176.17
329.92	2052.88
330.12	2763.94
330.33	3097.76
330.54	2019.71
330.75	2488.69
330.96	3002.73
331.16	3071.54
331.37	1865.09
331.58	2219.59
331.79	2898.69
332.00	3003.55
332.20	1786.85
332.41	2107.97
332.62	3024.65
332.83	2869.61
333.03	1970.56
333.24	2564.47
333.45	3233.95
333.66	2862.65
333.87	2137.67
334.07	2032.40
334.28	2850.77
334.49	3312.59
334.70	2158.35
334.90	1862.63
335.11	3132.57
335.32	2902.38
335.53	1990.22
335.74	2163.27
335.94	3214.90
336.15	3279.82
336.36	2221.23
336.57	2150.57
336.77	2801.83
336.98	2528.42
337.19	2134.60
337.40	1950.08
337.60	2850.16
337.81	3000.89
338.02	1846.65
338.23	1818.80
338.43	2729.53
338.64	2963.00
338.85	2146.07
339.06	1999.43
339.26	2975.29
339.47	2865.31
339.68	1930.01
339.89	2181.70
340.09	3064.58
340.30	2909.75
340.51	2061.08
340.72	1919.97
340.92	3016.04
341.13	2980.41
341.34	1962.36
341.55	1952.53
341.75	2960.54
341.96	2841.97
342.17	1974.86
342.38	2058.41
342.58	3130.53
342.79	3223.50
343.00	2132.75
343.20	1977.93
343.41	2642.49
343.62	3047.99
343.83	2261.16
344.03	2039.37
344.24	2534.98
344.45	3322.83
344.66	1871.64
344.86	2199.72
345.07	2862.04
345.28	3104.52
345.48	2212.01
345.69	2074.39
345.90	2819.85
346.11	3137.49
346.31	2193.37
346.52	2079.30
346.73	2882.93
346.93	2965.66
347.14	1864.68
347.35	1787.26
347.56	3126.43
347.76	3259.14
347.97	1996.36
348.18	2130.30
348.38	3074.00
348.59	3237.43
348.80	1998.20
349.01	1923.04
349.21	2861.01
349.42	2810.02
349.63	2095.48
349.83	2140.54
350.04	3107.38
350.25	3170.67
350.45	2044.69
350.66	1934.10
350.87	2860.81
351.08	3034.88
351.28	2055.34
351.49	1958.06
351.70	2822.72
351.90	3485.03
352.11	1935.94
352.32	2450.80
352.52	3063.35
352.73	3106.77
352.94	2118.83
353.14	2087.90
353.35	2421.11
353.56	3249.31
353.76	2094.66
353.97	2180.27
354.18	3264.87
354.39	3120.29
354.59	2033.84
354.80	1923.86
355.01	2982.66
355.21	3339.83
355.42	2004.55
355.63	2136.85
355.83	2705.37
356.04	2978.57
356.25	2341.85
356.45	2387.32
356.66	2858.15
356.87	2937.61
357.07	2024.42
357.28	2029.13
357.49	2887.84
357.69	2583.72
357.90	1820.64
358.11	1835.80
358.31	3425.64
358.52	3152.23
358.72	2026.06
358.93	1899.90
359.14	3259.34
359.34	3257.50
359.55	1991.65
359.76	2018.27
359.96	2608.50
360.17	2558.32
360.38	2150.16
360.58	1980.39
360.79	3269.79
361.00	3179.27
361.20	1925.09
361.41	2039.78
361.62	2763.12
361.82	3191.55
362.03	2051.66
362.23	2055.34
362.44	2992.08
362.65	3296.41
362.85	2164.70
363.06	2245.39
363.27	2840.12
363.47	3216.95
363.68	2078.07
363.89	1974.24
364.09	3039.60
364.30	3279.82
364.50	2048.79
364.71	2198.70
364.92	2729.12
365.12	3139.54
365.33	2065.38
365.54	2120.67
365.74	2995.36
365.95	3045.94
366.15	2096.10
366.36	2225.53
366.57	3380.17
366.77	3214.70
366.98	2001.28
367.18	2115.96
367.39	3039.39
367.60	3189.71
367.80	1915.67
368.01	2137.26
368.22	2848.11
368.42	3356.62
368.63	2070.91
368.83	2115.96
369.04	2649.25
369.25	3374.64
369.45	2011.72
369.66	2279.39
369.86	2987.58
370.07	2964.03
370.28	1889.66
370.48	2283.89
370.69	2764.35
370.89	2912.42
371.10	1874.30
371.31	2171.46
371.51	2931.87
371.72	3888.27
371.92	2146.89
372.13	2189.69
372.33	3206.71
372.54	3067.45
372.75	1978.75
372.95	2125.59
373.16	2818.82
373.36	2847.70
373.57	2062.92
373.78	2193.78
373.98	3330.20
374.19	3087.11
374.39	1965.44
374.60	1982.84
374.80	3251.36
375.01	2977.95
375.22	1889.87
375.42	2149.14
375.63	2871.46
375.83	3292.31
376.04	2182.93
376.24	1889.25
376.45	2855.89
376.66	2758.61
376.86	1952.94
377.07	2021.96
377.27	2647.00
377.48	3169.23
377.68	2114.32
377.89	1994.31
378.09	2880.26
378.30	3024.85
378.51	1928.37
378.71	2138.49
378.92	2604.20
379.12	3046.35
379.33	1923.66
379.53	2338.58
379.74	3076.25
379.94	2878.83
380.15	2079.71
380.36	2086.47
380.56	3029.15
380.77	2933.72
380.97	1985.30
381.18	2253.38
381.38	2815.75
381.59	2879.85
381.79	1960.73
382.00	2146.07
382.20	2839.10
382.41	3053.52
382.61	2150.78
382.82	1998.00
383.03	2656.22
383.23	3324.06
383.44	1951.92
383.64	1961.95
383.85	2951.33
384.05	2964.23
384.26	1900.92
384.46	2115.76
384.67	2985.53
384.87	2834.80
385.08	1917.31
385.28	2058.21
385.49	2993.31
385.69	2838.08
385.90	2598.26
386.10	1893.14
386.31	2911.80
386.51	3233.74
386.72	1925.50
386.92	2179.04
387.13	2896.03
387.33	3133.19
387.54	2242.12
387.74	1926.52
387.95	3018.71
388.15	2876.99
388.36	2232.70
388.56	1923.86
388.77	2692.87
388.97	3150.39
389.18	2179.86
389.38	2116.37
389.59	3129.30
389.79	3136.26
390.00	2073.36
390.20	2563.65
390.41	2798.55
390.61	2987.99
390.82	1940.04
391.02	2015.41
391.23	3009.90
391.43	3323.44
391.64	2072.13
391.84	1965.03
392.05	2714.58
392.25	3125.61
392.46	2028.31
392.66	1913.62
392.87	2951.53
393.07	3091.00
393.28	1923.04
393.48	2063.94
393.69	3335.53
393.89	3027.92
394.10	2231.26
394.30	2023.39
394.51	2944.77
394.71	3038.16
394.92	1954.79
395.12	2117.80
395.32	4150.41
395.53	2883.54
395.73	2100.60
395.94	1982.64
396.14	3007.24
396.35	3180.29
396.55	2285.94
396.76	1974.45
396.96	3152.64
397.17	2945.59
397.37	2185.18
397.58	2245.39
397.78	2723.39
397.98	3112.50
398.19	2037.11
398.39	2247.65
398.60	2448.35
398.80	2972.01
399.01	2415.58
399.21	2125.38
399.42	3050.65
399.62	3040.62
399.83	2056.57
400.03	1906.04
400.23	2607.47
400.44	3130.12
400.64	2090.36
400.85	2167.57
401.05	2963.41
401.26	2753.29
401.46	2181.09
401.66	2333.05
401.87	3043.49
402.07	2636.76
402.28	2002.30
402.48	2218.77
402.69	3102.26
402.89	2996.59
403.09	2092.82
403.30	1909.94
403.50	3158.79
403.71	2833.98
403.91	2079.30
404.12	2543.78
404.32	2653.76
404.52	2759.02
404.73	2278.57
404.93	1934.92
405.14	2235.56
405.34	3241.93
405.54	2044.49
405.75	2183.13
405.95	3248.90
406.16	3074.82
406.36	2194.40
406.57	2045.92
406.77	3016.04
406.97	3088.75
407.18	2075.21
407.38	1941.47
407.59	3040.21
407.79	2966.48
407.99	2115.35
408.20	2122.31
408.40	3168.21
408.61	2560.78
408.81	2132.35
409.01	2058.62
409.22	3348.43
409.42	3122.54
409.63	2076.64
409.83	2082.78
410.03	2688.16
410.24	3151.82
410.44	2124.15
410.64	2327.52
410.85	2891.73
411.05	3111.89
411.26	2106.95
411.46	2004.55
411.66	3163.29
411.87	3106.15
412.07	2013.97
412.28	2156.10
412.48	3175.99
412.68	2731.17
412.89	2088.52
413.09	2238.02
413.29	3095.30
413.50	3414.78
413.70	1978.13
413.91	2195.22
414.11	2975.90
414.31	3043.69
414.52	1984.28
414.72	1973.01
414.92	3165.34
415.13	3120.49
415.33	1985.51
415.53	2057.18
415.74	3278.80
415.94	3129.71
416.14	2054.73
416.35	1883.11
416.55	3053.32
416.76	3064.38
416.96	2108.79
417.16	2062.30
417.37	2964.23
417.57	3023.83
417.77	1871.64
417.98	2167.57
418.18	2849.54
418.38	3157.15
418.59	1992.88
418.79	1979.36
418.99	2735.88
419.20	3208.76
419.40	2046.33
419.60	2246.01
419.81	2929.82
420.01	3050.04
420.21	2282.87
420.42	2204.43
420.62	2883.95
420.82	2967.51
421.03	1968.71
421.23	2169.21
421.43	2705.57
421.64	3026.08
421.84	1875.53
422.04	2019.91
422.25	2901.36
422.45	2781.35
422.65	1897.85
422.86	2245.60
423.06	2486.85
423.26	2935.35
423.47	1976.90
423.67	2148.93
423.87	2872.28
424.08	2694.31
424.28	2035.68
424.48	2159.58
424.68	2972.22
424.89	3008.06
425.09	2127.23
425.29	2172.89
425.50	2790.15
425.70	2837.87
425.90	2182.93
426.11	2071.32
426.31	3214.08
426.51	3087.93
426.71	2161.84
426.92	2168.59
427.12	3117.83
427.32	2959.11
427.53	2120.47
427.73	2327.31
427.93	3203.43
428.14	3287.19
428.34	1986.53
428.54	2179.86
428.74	3014.61
428.95	3309.11
429.15	2007.21
429.35	2064.76
429.56	2581.46
429.76	2892.55
429.96	2127.02
430.16	2089.34
430.37	2968.12
430.57	3026.08
430.77	2141.77
430.97	2162.65
431.18	2897.06
431.38	3167.80
431.58	2334.27
431.79	2068.04
431.99	3052.50
432.19	3173.74
432.39	2605.02
432.60	2244.37
432.80	3080.35
433.00	3441.82
433.20	2076.85
433.41	2154.26
433.61	3122.54
433.81	2958.29
434.01	2199.52
434.22	2181.09
434.42	3436.49
434.62	2982.25
434.82	2197.68
435.03	2068.65
435.23	3030.99
435.43	3427.28
435.63	2078.69
435.84	2106.13
436.04	2924.50
436.24	3331.02
436.44	2218.77
436.65	2336.32
436.85	2998.23
437.05	2917.13
437.25	2056.78
437.46	1995.54
437.66	2992.70
437.86	3231.90
438.06	2226.55
438.27	2202.80
438.47	3077.89
438.67	3080.55
438.87	2104.29
439.08	2208.32
439.28	2989.83
439.48	3284.53
439.68	2316.87
439.88	2309.90
440.09	3216.33
440.29	3019.12
440.49	2007.42
440.69	2392.44
440.90	3093.25
441.10	3134.83
441.30	2164.70
441.50	2191.12
441.70	3151.82
441.91	3204.87
442.11	2459.41
442.31	2292.91
442.51	2700.45
442.71	3269.58
442.92	2341.03
443.12	2264.23
443.32	3351.71
443.52	3352.73
443.73	2342.47
443.93	2474.97
444.13	3196.88
444.33	3506.12
444.53	2403.91
444.74	2378.10
444.94	3019.12
445.14	3465.37
445.34	2433.19
445.54	2457.56
445.74	3063.97
445.95	3706.82
446.15	2503.85
446.35	2583.72
446.55	3502.03
446.75	3467.21
446.96	2339.80
447.16	2267.92
447.36	2950.51
447.56	3585.99
447.76	2378.72
447.97	2276.93
448.17	3271.02
448.37	3268.97
448.57	2570.61
448.77	2813.70
448.97	3269.58
449.18	3450.21
449.38	2313.18
449.58	2461.04
449.78	3101.03
449.98	3366.66
450.18	2310.72
450.39	2384.65
450.59	3244.19
450.79	3190.53
450.99	2773.15
451.19	2218.15
451.39	3371.57
451.60	3358.87
451.80	2238.23
452.00	2489.51
452.20	3225.14
452.40	3366.25
452.60	2362.13
452.80	2368.27
453.01	3182.95
453.21	3366.04
453.41	2347.18
453.61	2312.98
453.81	2780.73
454.01	3299.07
454.22	2428.89
454.42	2293.93
454.62	3373.00
454.82	3351.09
455.02	2314.82
455.22	2289.63
455.42	2951.94
455.62	3318.32
455.83	2311.34
456.03	2529.86
456.23	3080.35
456.43	3114.76
456.63	2227.58
456.83	2227.58
457.03	3470.69
457.24	3169.85
457.44	2100.60
457.64	2349.63
457.84	3044.72
458.04	3467.01
458.24	2234.95
458.44	2308.68
458.64	2827.02
458.84	3242.96
459.05	2417.83
459.25	2347.38
459.45	2973.24
459.65	3222.68
459.85	2571.43
460.05	2401.45
460.25	3029.97
460.45	3055.77
460.65	2285.33
460.86	2230.03
461.06	3047.79
461.26	3109.43
461.46	2164.70
461.66	2217.95
461.86	3364.40
462.06	3475.81
462.26	2164.09
462.46	2281.03
462.66	3101.44
462.87	2856.51
463.07	1992.88
463.27	2138.28
463.47	3074.62
463.67	3165.14
463.87	2069.88
464.07	4113.96
464.27	2939.24
464.47	3177.22
464.67	2245.80
464.87	2228.39
465.08	3124.59
465.28	2907.91
465.48	2146.07
465.68	2181.29
465.88	3346.38
466.08	3157.35
466.28	2067.63
466.48	2152.82
466.68	3014.20
466.88	3198.93
467.08	2168.18
467.28	2233.51
467.48	2981.43
467.68	3129.30
467.89	2252.36
468.09	2189.28
468.29	2847.70
468.49	3263.23
468.69	2176.38
468.89	2163.27
469.09	3007.65
469.29	3203.84
469.49	1892.94
469.69	2219.38
469.89	3180.09
470.09	3154.28
470.29	2108.18
470.49	2688.16
470.69	3141.79
470.89	3177.22
471.09	2027.69
471.29	2248.87
471.49	3019.73
471.70	3496.91
471.90	2257.89
472.10	2153.44
472.30	2821.28
472.50	2818.62
472.70	2054.52
472.90	2435.85
473.10	3357.64
473.30	3114.55
473.50	2072.54
473.70	2052.27
473.90	3378.33
474.10	3225.14
474.30	1884.13
474.50	2018.89
474.70	3452.47
474.90	2929.82
475.10	2080.33
475.30	2080.74
475.50	2780.53
475.70	3097.76
475.90	2246.21
476.10	2236.79
476.30	2831.93
476.50	3123.77
476.70	2103.26
476.90	2237.20
477.10	2964.23
477.30	3068.88
477.50	2025.44
477.70	2272.02
477.90	3163.09
478.10	3337.17
478.30	2284.92
478.50	2127.02
478.70	2852.00
478.90	3221.66
479.10	2015.82
479.30	2158.56
479.50	3092.02
479.70	3411.92
479.90	2165.93
480.10	2294.34
480.30	3063.15
480.50	3215.52
480.70	2073.36
480.90	2190.30
481.10	2778.07
481.30	3110.45
481.50	2062.71
481.70	2286.35
481.90	3026.90
482.10	3215.72
482.30	2102.24
482.50	7747.47
482.70	2695.74
482.90	2882.31
483.10	2300.28
483.30	2148.32
483.50	3324.47
483.70	3318.32
483.90	2177.81
484.10	2128.25
484.30	3229.03
484.50	3071.95
484.70	2358.85
484.90	2203.00
485.10	3017.07
485.30	2762.10
485.50	2242.94
485.69	2220.00
485.89	3343.92
486.09	3290.88
486.29	2467.19
486.49	2198.90
486.69	3113.32
486.89	3300.71
487.09	2176.38
487.29	2240.68
487.49	2897.88
487.69	3307.67
487.89	2184.77
488.09	2178.83
488.29	2735.06
488.49	3085.06
488.69	2371.75
488.89	2319.53
489.09	3009.69
489.29	3103.49
489.48	2037.11
489.68	2034.45
489.88	3088.34
490.08	3481.14
490.28	2335.50
490.48	2221.84
490.68	3263.64
490.88	3464.75
491.08	2141.56
491.28	2583.31
491.48	3110.66
491.68	3118.03
491.88	2240.07
492.08	2216.93
492.27	3356.62
492.47	3299.48
492.67	2276.52
492.87	2272.22
493.07	3374.03
493.27	3243.37
493.47	2260.96
493.67	2321.78
493.87	3474.99
494.07	3237.63
494.27	2165.73
494.46	2367.04
494.66	3290.68
494.86	3191.35
495.06	2108.18
495.26	2110.64
495.46	2969.55
495.66	2764.35
495.86	2102.65
496.06	2498.73
496.26	2880.06
496.45	3204.46
496.65	2127.43
496.85	2082.58
497.05	3088.75
497.25	3361.13
497.45	2164.91
497.65	2162.04
497.85	3292.11
498.05	3091.82
498.24	2437.70
498.44	2091.39
498.64	2808.58
498.84	3378.94
499.04	2042.03
499.24	2584.54
499.44	3218.79
499.64	3269.38
499.83	2174.33
500.03	2306.42
500.23	3352.32
500.43	3586.40
500.63	2074.39
500.83	2358.24
501.03	3187.25
501.22	3228.01
501.42	2446.50
501.62	2248.06
501.82	2959.31
502.02	3149.37
502.22	2343.70
502.42	2377.28
502.62	2808.17
502.81	3037.34
503.01	2133.57
503.21	2259.11
503.41	3438.54
503.61	3431.17
503.81	2247.24
504.00	2379.74
504.20	3072.57
504.40	3238.04
504.60	2516.54
504.80	2501.80
505.00	3348.84
505.20	3331.84
505.39	2148.11
505.59	2472.72
505.79	3132.78
505.99	3451.85
506.19	2560.37
506.39	2423.16
506.58	3296.00
506.78	3282.69
506.98	2505.89
507.18	2565.49
507.38	3153.67
507.57	3111.27
507.77	2074.59
507.97	2334.68
508.17	3295.59
508.37	3193.81
508.57	2173.51
508.76	2404.32
508.96	3003.14
509.16	3576.57
509.36	2154.05
509.56	2349.02
509.75	3382.43
509.95	2716.84
510.15	2291.68
510.35	2397.76
510.55	3043.28
510.75	3131.14
510.94	2422.54
511.14	2286.97
511.34	3210.40
511.54	2803.05
511.74	2210.58
511.93	2699.63
512.13	3476.84
512.33	3262.62
512.53	2131.53
512.72	2314.00
512.92	3260.16
513.12	3448.37
513.32	2590.48
513.52	2205.87
513.71	3201.79
513.91	3397.38
514.11	2633.28
514.31	2388.14
514.51	3273.47
514.70	3369.11
514.90	2682.63
515.10	2397.97
515.30	3009.49
515.49	3400.86
515.69	2403.09
515.89	2524.33
516.09	3247.05
516.29	3634.33
516.48	2696.77
516.68	2473.95
516.88	3324.06
517.08	3469.05
517.27	2301.71
517.47	2377.90
517.67	3379.35
517.87	3361.54
518.06	2428.48
518.26	2360.08
518.46	3004.37
518.66	3470.49
518.85	2472.31
519.05	2393.26
519.25	3407.82
519.45	3007.85
519.64	2351.48
519.84	2528.63
520.04	3173.74
520.24	3391.85
520.43	2479.68
520.63	2463.50
520.83	2871.25
521.03	3309.52
521.22	2489.92
521.42	2353.12
521.62	3323.03
521.82	3421.75
522.01	2396.53
522.21	2576.14
522.41	3050.04
522.61	3376.49
522.80	2304.99
523.00	2555.25
523.20	3260.16
523.39	3566.13
523.59	2513.06
523.79	2427.87
523.99	3199.13
524.18	3512.06
524.38	2453.06
524.58	2576.96
524.77	3317.50
524.97	3148.14
525.17	2366.63
525.37	2514.09
525.56	3590.50
525.76	3453.49
525.96	2527.60
526.15	2336.32
526.35	3314.84
526.55	3477.86
526.75	2473.13
526.94	2602.56
527.14	2967.30
527.34	3548.52
527.53	2550.54
527.73	2386.29
527.93	3261.60
528.12	3302.14
528.32	2355.98
528.52	2568.77
528.72	3443.45
528.91	3432.40
529.11	2536.82
529.31	2486.03
529.50	3695.76
529.70	3194.22
529.90	2470.67
530.09	2309.90
530.29	3487.90
530.49	3321.60
530.68	2393.67
530.88	2735.68
531.08	3521.28
531.27	3371.37
531.47	2423.36
531.67	2488.69
531.86	3467.01
532.06	3135.64
532.26	2439.75
532.45	2936.58
532.65	2995.56
532.85	2978.98
533.04	2340.62
533.24	2518.80
533.44	3225.55
533.63	3370.75
533.83	2523.30
534.03	2907.30
534.22	3298.05
534.42	3323.65
534.62	2543.37
534.81	2491.15
535.01	2991.67
535.21	3643.54
535.40	2369.91
535.60	2987.58
535.80	2998.84
535.99	3459.22
536.19	2567.33
536.38	2456.74
536.58	3496.91
536.78	3328.15
536.97	2566.31
537.17	2632.66
537.37	3255.25
537.56	3432.60
537.76	2394.49
537.96	2482.96
538.15	3667.91
538.35	3713.79
538.54	2393.46
538.74	2624.27
538.94	3461.48
539.13	3474.38
539.33	2544.81
539.53	2495.25
539.72	3258.52
539.92	3508.38
540.11	2363.77
540.31	2556.89
540.51	3420.72
540.70	3643.34
540.90	2511.22
541.10	2431.35
541.29	3622.24
541.49	3324.47
541.68	2499.34
541.88	2615.46
542.08	3592.14
542.27	3412.53
542.47	2415.17
542.66	2491.76
542.86	3116.60
543.06	3657.26
543.25	2588.43
543.45	2973.45
543.64	3479.29
543.84	3459.84
544.04	2315.84
544.23	2725.85
544.43	3617.74
544.62	3666.27
544.82	2338.58
545.01	2562.83
545.21	3648.66
545.41	3436.29
545.60	2396.94
545.80	2598.87
545.99	3570.63
546.19	3598.69
546.39	2753.08
546.58	2565.29
546.78	3414.78
546.97	3480.11
547.17	2505.69
547.36	2559.76
547.56	3566.95
547.76	3552.00
547.95	2584.74
548.15	2559.14
548.34	3371.37
548.54	3439.36
548.73	2562.21
548.93	2551.15
549.12	3516.77
549.32	3105.13
549.52	2814.32
549.71	2526.78
549.91	3463.52
550.10	3297.02
550.30	2604.40
550.49	2347.18
550.69	3293.13
550.88	3466.80
551.08	2512.24
551.28	2545.63
551.47	3745.12
551.67	3289.24
551.86	2442.00
552.06	2827.84
552.25	3325.08
552.45	3721.16
552.64	2649.05
552.84	2848.72
553.03	3392.46
553.23	3867.79
553.42	2406.36
553.62	2626.11
553.81	3490.97
554.01	3587.43
554.21	2465.34
554.40	2486.64
554.60	3385.09
554.79	3235.79
554.99	2684.89
555.18	2702.29
555.38	3314.84
555.57	5611.23
555.77	2589.25
555.96	2653.35
556.16	3599.31
556.35	3646.82
556.55	2293.11
556.74	2459.00
556.94	3301.33
557.13	3557.12
557.33	2685.71
557.52	2525.35
557.72	3552.20
557.91	3732.22
558.11	2817.60
558.30	2648.02
558.50	3380.58
558.69	3561.42
558.89	2571.63
559.08	2423.36
559.28	3130.32
559.47	3619.38
559.67	2437.08
559.86	2702.91
560.06	3073.59
560.25	3482.78
560.45	2988.81
560.64	2611.36
560.84	3483.59
561.03	3644.57
561.23	2376.26
561.42	2251.74
561.62	3439.15
561.81	3636.37
562.00	2565.29
562.20	2951.74
562.39	3357.24
562.59	3487.28
562.78	2670.76
562.98	2523.92
563.17	3612.41
563.37	3308.29
563.56	2355.78
563.76	2481.32
563.95	3390.62
564.15	3467.62
564.34	2390.39
564.54	2624.68
564.73	3621.42
564.92	3770.72
565.12	2566.51
565.31	2638.60
565.51	3679.79
565.70	3675.90
565.90	2570.20
566.09	2798.96
566.29	3531.93
566.48	3789.56
566.67	2725.64
566.87	2532.93
567.06	3538.89
567.26	3308.29
567.45	2372.98
567.65	2425.82
567.84	3725.26
568.03	3780.76
568.23	2432.58
568.42	2841.15
568.62	3314.64
568.81	3602.79
569.01	2566.92
569.20	2319.32
569.39	3632.28
569.59	3666.89
569.78	2421.11
569.98	2566.31
570.17	3598.69
570.37	3412.33
570.56	2686.12
570.75	2476.40
570.95	3760.89
571.14	3668.94
571.34	2353.53
571.53	2274.06
571.72	3461.48
571.92	3579.23
572.11	2693.08
572.31	2871.05
572.50	3355.80
572.69	3047.79
572.89	2620.58
573.08	2598.67
573.28	3609.54
573.47	3724.23
573.66	2384.45
573.86	2458.59
574.05	2980.82
574.25	3701.29
574.44	2368.07
574.63	2450.39
574.83	3344.13
575.02	3486.26
575.22	2404.11
575.41	2520.23
575.60	3660.13
575.80	3556.30
575.99	2523.92
576.18	2362.95
576.38	3217.97
576.57	3858.99
576.77	2346.15
576.96	2327.31
577.15	3393.69
577.35	3791.61
577.54	2830.91
577.73	2411.69
577.93	3507.76
578.12	3636.58
578.31	2454.90
578.51	2433.40
578.70	2961.16
578.90	3914.69
579.09	2335.30
579.28	2612.39
579.48	3118.65
579.67	3685.11
579.86	2413.53
580.06	2441.18
580.25	3670.37
580.44	3866.77
580.64	2280.41
580.83	2281.64
581.02	3671.60
581.22	3570.84
581.41	2524.12
581.60	2413.53
581.80	3361.13
581.99	3763.55
582.18	2559.35
582.38	2689.60
582.57	2899.31
582.76	3901.38
582.96	2498.93
583.15	2517.36
583.34	3360.72
583.54	3316.28
583.73	2321.58
583.92	2375.64
584.12	3116.80
584.31	3508.78
584.50	2387.93
584.70	2733.42
584.89	3286.58
585.08	3735.90
585.28	2588.63
585.47	2403.29
585.66	3258.93
585.86	3435.06
586.05	2700.45
586.24	2465.34
586.43	3587.02
586.63	3597.46
586.82	2466.98
587.01	2465.96
587.21	3175.79
587.40	3855.71
587.59	2528.63
587.79	2454.70
587.98	3630.84
588.17	3483.59
588.36	2540.91
588.56	3004.17
588.75	3556.50
588.94	3578.21
589.14	2794.66
589.33	2311.54
589.52	3593.78
589.71	3821.71
589.91	2477.43
590.10	2457.77
590.29	3758.02
590.49	3708.26
590.68	2486.85
590.87	2535.79
591.06	3568.79
591.26	3390.82
591.45	2477.22
591.64	2533.75
591.84	3376.08
592.03	3906.50
592.22	2391.21
592.41	2444.87
592.61	3200.57
592.80	3352.32
592.99	2333.46
593.18	2523.30
593.38	3183.36
593.57	3281.05
593.76	2493.20
593.95	2344.92
594.15	3384.68
594.34	3772.56
594.53	2562.62
594.72	2483.78
594.92	3362.36
595.11	3552.82
595.30	2369.50
595.49	2343.29
595.69	3102.26
595.88	3500.39
596.07	2579.62
596.26	2524.53
596.46	3374.23
596.65	3271.02
596.84	2421.52
597.03	2469.85
597.22	3395.94
597.42	4086.11
597.61	2239.04
597.80	2343.29
597.99	3698.22
598.19	3357.44
598.38	2302.94
598.57	2549.52
598.76	3358.87
598.95	3458.61
599.15	2541.32
599.34	2315.43
599.53	3286.79
599.72	2998.02
599.92	2240.68
600.11	2228.19
600.30	3515.54
600.49	3534.59
600.68	2277.14
600.88	2323.63
601.07	3237.43
601.26	3468.64
601.45	2246.42
601.64	2456.54
601.84	3593.98
602.03	3609.34
602.22	2304.78
602.41	2305.40
602.60	3521.28
602.80	3489.12
602.99	2767.01
603.18	2508.35
603.37	3166.57
603.56	3018.09
603.76	2248.87
603.95	2288.20
604.14	3293.75
604.33	3591.32
604.52	2363.56
604.71	2165.93
604.91	2754.11
605.10	3656.44
605.29	2273.45
605.48	2181.91
605.67	3289.86
605.86	3418.67
606.06	2420.49
606.25	2146.68
606.44	3078.51
606.63	2965.46
606.82	2418.86
607.01	2285.33
607.21	3469.26
607.40	3282.07
607.59	2436.67
607.78	2648.84
607.97	3436.70
608.16	3536.64
608.36	2465.96
608.55	2293.93
608.74	3278.59
608.93	3351.09
609.12	2438.93
609.31	2407.59
609.50	3129.09
609.70	3580.46
609.89	2384.65
610.08	2482.14
610.27	3138.72
610.46	3423.79
610.65	2603.79
610.84	2411.48
611.03	3787.31
611.23	3424.82
611.42	2398.79
611.61	2466.57
611.80	3521.69
611.99	3430.55
612.18	2471.08
612.37	2235.56
612.56	3256.07
612.76	3306.04
612.95	2413.94
613.14	2311.95
613.33	3467.21
613.52	3452.26
613.71	2249.69
613.90	2575.53
614.09	2960.13
614.29	3200.98
614.48	2445.48
614.67	2159.38
614.86	3246.44
615.05	3845.68
615.24	2329.97
615.43	2460.22
615.62	3776.25
615.81	3295.59
616.00	2432.99
616.20	2478.45
616.39	3449.19
616.58	3141.58
616.77	2291.88
616.96	2336.73
617.15	3577.60
617.34	3304.60
617.53	2408.82
617.72	2323.22
617.91	3084.04
618.10	3396.56
618.29	2272.43
618.49	2234.95
618.68	3399.42
618.87	3430.14
619.06	2311.34
619.25	2302.74
619.44	3025.46
619.63	3084.86
619.82	2456.54
620.01	2216.31
620.20	3216.74
620.39	3569.20
620.58	2236.38
620.77	2428.89
620.96	3498.34
621.16	3359.08
621.35	2319.53
621.54	2446.50
621.73	3748.81
621.92	3557.73
622.11	2503.64
622.30	2323.01
622.49	3351.09
622.68	3381.40
622.87	2450.39
623.06	2379.53
623.25	3587.84
623.44	3692.28
623.63	2187.85
623.82	2404.32
624.01	3325.29
624.20	3521.48
624.39	2634.71
624.58	2490.74
624.77	3233.33
624.96	3421.95
625.15	2193.17
625.34	2342.26
625.53	3348.43
625.72	3619.17
625.92	2334.89
626.11	2408.41
626.30	3600.74
626.49	3456.97
626.68	2388.75
626.87	2458.18
627.06	3631.46
627.25	3490.35
627.44	2468.01
627.63	2510.81
627.82	2761.69
628.01	3328.97
628.20	2230.44
628.39	2401.04
628.58	3234.77
628.77	3810.66
628.96	2187.03
629.15	2344.72
629.34	3259.96
629.53	3467.62
629.72	2731.79
629.91	2814.93
630.10	3681.43
630.29	3441.00
630.48	2284.71
630.67	2451.42
630.86	3388.57
631.05	3441.82
631.24	2209.55
631.43	2438.52
631.62	3131.96
631.81	3755.57
632.00	2464.94
632.19	2720.32
632.37	3896.67
632.56	3494.24
632.75	2531.08
632.94	2853.43
633.13	3832.57
633.32	3432.19
633.51	2435.44
633.70	2523.51
633.89	3652.14
634.08	3766.21
634.27	2507.53
634.46	2884.77
634.65	3639.24
634.84	3972.65
635.03	2834.80
635.22	2894.80
635.41	3834.00
635.60	4071.16
635.79	2768.24
635.98	2882.11
636.17	3742.46
636.36	3906.91
636.55	2885.59
636.74	3117.01
636.92	4460.27
637.11	4333.09
637.30	3496.29
637.49	3517.39
637.68	4397.40
637.87	4942.77
638.06	4001.73
638.25	4076.28
638.44	5017.11
638.63	5471.35
638.82	4584.17
639.01	4937.65
639.20	6026.15
639.39	6670.64
639.58	5854.73
639.76	6170.12
639.95	7627.05
640.14	7755.86
640.33	7078.60
640.52	7476.93
640.71	8776.37
640.90	9300.85
641.09	8504.40
641.28	8789.27
641.47	10306.40
641.66	10535.37
641.84	9629.14
642.03	9771.47
642.22	10964.62
642.41	11093.85
642.60	10549.50
642.79	10611.14
642.98	11918.97
643.17	11991.47
643.36	11026.26
643.55	11226.15
643.73	12090.80
643.92	12777.69
644.11	11451.83
644.30	11848.93
644.49	12963.03
644.68	13152.67
644.87	11964.64
645.06	12270.81
645.25	12707.03
645.43	13365.04
645.62	12414.38
645.81	12368.50
646.00	13682.48
646.19	13580.08
646.38	12831.14
646.57	12584.97
646.76	13585.82
646.94	14109.69
647.13	12649.69
647.32	12700.07
647.51	13754.57
647.70	13346.41
647.89	12305.83
648.08	12361.13
648.26	13262.65
648.45	13625.14
648.64	12296.62
648.83	12101.86
649.02	12803.90
649.21	12871.48
649.40	11878.22
649.58	11831.53
649.77	12484.62
649.96	12783.42
650.15	11298.64
650.34	11282.67
650.53	12308.70
650.71	12105.13
650.90	11152.83
651.09	11405.14
651.28	12018.10
651.47	11679.16
651.66	11072.34
651.84	10845.84
652.03	12702.94
652.22	11878.22
652.41	10604.38
652.60	10643.50
652.79	11275.50
652.97	11541.33
653.16	10239.02
653.35	10405.32
653.54	11189.69
653.73	11702.09
653.91	10096.90
654.10	10034.84
654.29	10772.52
654.48	11313.39
654.67	9999.82
654.86	9846.02
655.04	10641.04
655.23	10730.33
655.42	9741.16
655.61	9912.37
655.80	10458.36
655.98	10674.42
656.17	9463.46
656.36	9338.33
656.55	10786.04
656.73	10159.97
656.92	9048.13
657.11	9095.85
657.30	10255.41
657.49	10301.08
657.67	8679.70
657.86	8778.00
658.05	9288.56
658.24	9091.14
658.43	8009.40
658.61	7924.00
658.80	8691.37
658.99	8583.24
659.18	7261.89
659.36	7002.82
659.55	7408.73
659.74	7625.00
659.93	6412.39
660.12	6184.05
660.30	7213.56
660.49	6734.75
660.68	5423.43
660.87	5503.51
661.05	5869.89
661.24	5657.92
661.43	4445.73
661.62	4562.67
661.80	4685.96
661.99	4843.45
662.18	3661.56
662.37	3760.89
662.55	4473.79
662.74	4732.86
662.93	3218.79
663.12	2956.65
663.30	4157.79
663.49	3757.82
663.68	2654.17
663.87	2892.14
664.05	3470.49
664.24	3391.85
664.43	2364.18
664.61	2531.29
664.80	3570.43
664.99	3227.19
665.18	2381.38
665.36	2543.37
665.55	3334.09
665.74	3195.45
665.93	2260.55
666.11	2315.02
666.30	3251.36
666.49	3274.09
666.67	2022.37
666.86	2449.17
667.05	3582.92
667.24	3257.91
667.42	2282.26
667.61	2568.15
667.80	3039.19
667.98	3132.78
668.17	2145.04
668.36	2204.64
668.54	3142.81
668.73	3336.14
668.92	2578.19
669.11	2182.11
669.29	3261.19
669.48	3437.93
669.67	2228.39
669.85	2332.64
670.04	3014.81
670.23	3272.24
670.41	2253.79
670.60	2211.60
670.79	3351.50
670.97	3289.24
671.16	2231.67
671.35	1962.77
671.53	3142.40
671.72	2963.82
671.91	2105.72
672.10	2040.19
672.28	3308.29
672.47	3857.35
672.66	2336.94
672.84	2348.00
673.03	3318.94
673.22	3407.41
673.40	2184.57
673.59	2340.21
673.78	3119.47
673.96	3428.09
674.15	2130.30
674.33	2302.12
674.52	2830.91
674.71	3184.80
674.89	2040.39
675.08	2100.60
675.27	2635.33
675.45	3181.93
675.64	2202.39
675.83	2134.19
676.01	3125.61
676.20	2912.01
676.39	2044.49
676.57	2097.32
676.76	3061.51
676.94	3292.31
677.13	1974.65
677.32	2218.97
677.50	3379.35
677.69	3379.35
677.88	2089.75
678.06	2564.26
678.25	3260.98
678.44	3342.49
678.62	2024.21
678.81	2360.28
678.99	2994.74
679.18	3463.73
679.37	2080.33
679.55	2218.15
679.74	3213.88
679.92	3031.40
680.11	2119.03
680.30	2340.83
680.48	2872.28
680.67	3039.80
680.85	2220.20
681.04	2314.61
681.23	2752.27
681.41	3701.29
681.60	2201.36
681.78	2123.54
681.97	2760.66
682.16	3090.79
682.34	2189.69
682.53	2234.74
682.71	3034.48
682.90	2918.15
683.09	1923.45
683.27	2110.02
683.46	3323.65
683.64	3275.73
683.83	2129.68
684.02	1969.12
684.20	3044.10
684.39	3003.35
684.57	2532.52
684.76	2240.07
684.94	3100.62
685.13	2879.85
685.32	2123.54
685.50	2176.79
685.69	3161.45
685.87	3348.63
686.06	2044.69
686.24	2183.54
686.43	2848.93
686.61	3315.66
686.80	2070.70
686.99	2171.67
687.17	3019.53
687.36	3152.23
687.54	2034.45
687.73	2003.73
687.91	3325.49
688.10	3137.90
688.28	2094.05
688.47	2000.46
688.66	2851.39
688.84	3078.92
689.03	1935.33
689.21	1915.06
689.40	2891.32
689.58	3023.83
689.77	2400.22
689.95	2132.35
690.14	3098.99
690.32	3396.76
690.51	1951.10
690.69	2030.15
690.88	2988.19
691.06	3350.68
691.25	2107.97
691.43	2368.68
691.62	2800.19
691.80	3082.19
691.99	2149.96
692.18	2097.73
692.36	3379.76
692.55	3130.93
692.73	1949.87
692.92	2033.84
693.10	3221.05
693.29	3147.52
693.47	2210.99
693.66	2133.98
693.84	2625.91
694.03	2789.33
694.21	2187.85
694.40	1979.77
694.58	2712.33
694.77	2908.53
694.95	1969.33
695.14	1986.73
695.32	3231.69
695.50	3181.11
695.69	2011.11
695.87	2273.04
696.06	2993.52
696.24	3095.30
696.43	2225.73
696.61	2008.03
696.80	2926.75
696.98	3131.75
697.17	1943.32
697.35	2455.51
697.54	2988.19
697.72	3188.48
697.91	2135.83
698.09	2198.49
698.28	2686.32
698.46	3059.67
698.65	2111.87
698.83	2206.07
699.01	2730.35
699.20	3618.15
699.38	2091.18
699.57	2282.87
699.75	2708.64
699.94	2944.16
700.12	2078.89
700.31	2107.97
700.49	3130.93
700.67	3366.86
700.86	2245.80
701.04	2001.89
701.23	2987.78
701.41	3124.18
701.60	2072.34
701.78	1985.51
701.97	2879.44
702.15	3257.91
702.33	2063.33
702.52	2063.74
702.70	2979.18
702.89	3193.60
703.07	2297.62
703.26	2021.35
703.44	2462.27
703.62	3126.02
703.81	2027.08
703.99	1957.04
704.18	2736.91
704.36	2814.93
704.54	2015.00
704.73	2064.35
704.91	2747.15
705.10	3132.37
705.28	2019.30
705.46	2134.60
705.65	3186.84
705.83	3332.86
706.02	2220.00
706.20	2121.49
706.38	2968.74
706.57	2902.79
706.75	2232.70
706.94	2339.39
707.12	2576.75
707.30	3147.32
707.49	1988.99
707.67	1975.68
707.86	3031.40
708.04	3133.80
708.22	2198.70
708.41	2104.70
708.59	2919.79
708.78	3339.83
708.96	2247.03
709.14	1927.14
709.33	3083.63
709.51	3190.74
709.69	2155.28
709.88	1994.31
710.06	2875.14
710.24	2954.81
710.43	1945.98
710.61	1987.55
710.80	2897.26
710.98	2865.31
711.16	2124.36
711.35	2133.98
711.53	3205.48
711.71	2716.02
711.90	2067.83
712.08	1957.04
712.26	3086.90
712.45	3077.48
712.63	1887.61
712.81	2033.43
713.00	2807.15
713.18	3234.36
713.36	2159.58
713.55	2101.63
713.73	3069.50
713.91	2873.91
714.10	2065.79
714.28	1979.57
714.46	3119.88
714.65	3349.86
714.83	2051.66
715.01	1920.59
715.20	3167.59
715.38	2969.55
715.56	2049.61
715.75	2220.61
715.93	3195.86
716.11	2876.78
716.30	2055.34
716.48	1935.54
716.66	2940.47
716.85	3158.58
717.03	1867.13
717.21	2229.83
717.40	2804.28
717.58	2976.52
717.76	2252.56
717.94	1978.54
718.13	2810.63
718.31	3051.68
718.49	2121.08
718.68	1953.35
718.86	3317.30
719.04	2881.70
719.23	2337.76
719.41	2151.60
719.59	2620.38
719.77	3207.73
719.96	1996.77
720.14	1938.20
720.32	3101.44
720.51	3076.25
720.69	1934.31
720.87	2234.95
721.05	2904.02
721.24	3489.74
721.42	1992.67
721.60	2360.28
721.78	3206.71
721.97	3420.72
722.15	1967.28
722.33	2353.12
722.51	2936.99
722.70	3277.36
722.88	1986.94
723.06	2159.79
723.25	2864.49
723.43	2998.23
723.61	2118.01
723.79	1840.71
723.98	2738.75
724.16	2897.88
724.34	2082.17
724.52	2159.99
724.71	2832.96
724.89	3051.47
725.07	2250.51
725.25	2057.80
725.43	2828.86
725.62	2852.82
725.80	2126.41
725.98	1965.23
726.16	2993.93
726.35	3110.66
726.53	2355.16
726.71	2017.45
726.89	2849.34
727.08	3160.43
727.26	2124.36
727.44	2045.31
727.62	2776.64
727.80	3322.01
727.99	1993.08
728.17	2079.92
728.35	2629.39
728.53	3127.25
728.71	2370.73
728.90	2018.68
729.08	3018.50
729.26	3085.06
729.44	1988.99
729.63	2372.57
729.81	2805.10
729.99	3117.83
730.17	1865.09
730.35	2141.77
730.53	3149.37
730.72	3058.85
730.90	2040.19
731.08	2159.58
731.26	3199.95
731.44	3224.32
731.63	2047.35
731.81	1973.83
731.99	3184.18
732.17	3327.54
732.35	2061.28
732.54	2218.77
732.72	2724.21
732.90	2957.06
733.08	2200.34
733.26	2207.30
733.44	3163.09
733.63	2973.24
733.81	2095.28
733.99	2002.91
734.17	3383.86
734.35	3205.69
734.53	2133.16
734.72	2147.50
734.90	3024.44
735.08	3088.13
735.26	1876.14
735.44	2323.42
735.62	3286.38
735.80	3321.19
735.99	1970.56
736.17	2117.80
736.35	3373.00
736.53	2914.87
736.71	2143.40
736.89	1947.41
737.07	2865.72
737.26	3127.04
737.44	1817.16
737.62	1889.87
737.80	2931.46
737.98	2717.86
738.16	2150.57
738.34	1985.92
738.53	2737.32
738.71	3028.95
738.89	2055.14
739.07	2085.86
739.25	3172.30
739.43	2958.50
739.61	1808.56
739.79	2173.30
739.97	3198.11
740.16	3222.48
740.34	2152.82
740.52	2338.17
740.70	3127.86
740.88	3281.46
741.06	2009.67
741.24	1967.69
741.42	3148.96
741.60	3010.51
741.79	1999.02
741.97	1866.31
742.15	3018.09
742.33	3343.72
742.51	1973.01
742.69	2038.75
742.87	2858.15
743.05	3102.47
743.23	1979.36
743.41	2276.52
743.59	3305.63
743.77	2946.00
743.96	1913.42
744.14	2261.37
744.32	2730.35
744.50	3215.31
744.68	1931.64
744.86	2059.64
745.04	3003.96
745.22	3032.43
745.40	1950.28
745.58	1933.49
745.76	3243.78
745.94	3189.71
746.12	2067.22
746.30	1968.71
746.49	2682.22
746.67	3394.71
746.85	2171.67
747.03	2073.98
747.21	2794.25
747.39	3019.53
747.57	2139.31
747.75	2188.87
747.93	3079.33
748.11	2962.39
748.29	2153.23
748.47	2398.17
748.65	2966.28
748.83	2930.64
749.01	2171.46
749.19	1886.59
749.37	3226.37
749.55	2968.12
749.73	2028.10
749.91	2105.93
750.09	3233.95
750.27	3079.74
750.45	1913.21
750.63	2091.18
750.81	2593.34
750.99	3252.58
751.17	2009.47
751.35	1953.56
751.53	2909.34
751.71	3103.90
751.89	2195.22
752.07	2056.78
752.25	2280.21
752.44	3090.38
752.62	2098.76
752.80	1942.70
752.98	2630.00
753.16	3114.96
753.34	2338.99
753.51	2121.49
753.69	3187.87
753.87	2961.98
754.05	1916.90
754.23	2081.15
754.41	2760.05
754.59	3049.84
754.77	2368.89
754.95	2086.47
755.13	2942.52
755.31	2940.88
755.49	2200.34
755.67	2041.21
755.85	3017.68
756.03	3210.19
756.21	1784.60
756.39	2106.75
756.57	3113.32
756.75	3366.86
756.93	1981.41
757.11	1980.39
757.29	3141.79
757.47	3236.41
757.65	1926.32
757.83	2215.90
758.01	2836.23
758.19	2966.07
758.37	2148.73
758.55	2109.41
758.73	2826.81
758.91	3145.48
759.09	2158.56
759.27	2433.81
759.44	3329.18
759.62	2848.93
759.80	2215.08
759.98	1923.04
760.16	3044.72
760.34	3282.69
760.52	1808.77
760.70	2180.68
760.88	3240.71
761.06	3142.40
761.24	2356.19
761.42	1989.40
761.60	3144.86
761.78	3197.70
761.95	1929.60
762.13	2208.32
762.31	3190.12
762.49	2987.58
762.67	2147.91
762.85	2251.74
763.03	3159.20
763.21	3104.11
763.39	2025.85
763.57	1995.95
763.75	2928.80
763.92	3162.68
764.10	1991.04
764.28	2119.85
764.46	3320.78
764.64	2934.53
764.82	2297.82
765.00	1907.07
765.18	3205.89
765.36	3046.97
765.54	1940.04
765.71	2153.03
765.89	2738.13
766.07	2981.23
766.25	2024.21
766.43	2131.94
766.61	2938.43
766.79	3333.07
766.97	2360.08
767.14	2025.65
767.32	3046.56
767.50	3050.45
767.68	2077.05
767.86	2188.46
768.04	2922.04
768.22	3318.32
768.40	1941.47
768.57	2195.42
768.75	3407.21
768.93	3167.80
769.11	2196.65
769.29	1922.84
769.47	2838.69
769.65	3427.07
769.82	2456.95
770.00	2059.23
770.18	2888.86
770.36	3029.15
770.54	1944.75
770.72	1995.54
770.89	3218.59
771.07	2991.26
771.25	2133.16
771.43	1970.35
771.61	2713.97
771.79	3042.87
771.96	2050.02
772.14	2172.08
772.32	2859.17
772.50	3164.52
772.68	2155.08
772.86	1968.10
773.03	3162.88
773.21	3152.44
773.39	1977.11
773.57	1829.04
773.75	2841.15
773.92	2952.97
774.10	1873.48
774.28	1910.14
774.46	3321.81
774.64	3235.18
774.82	2217.34
774.99	2015.41
775.17	2581.87
775.35	2958.09
775.53	2082.78
775.71	2051.86
775.88	2914.87
776.06	3139.13
776.24	2032.81
776.42	2030.15
776.59	2861.22
776.77	2903.81
776.95	2105.31
777.13	1988.78
777.31	3048.20
777.48	3091.00
777.66	2191.33
777.84	1867.95
778.02	2962.18
778.19	3323.44
778.37	2212.63
778.55	2075.41
778.73	2685.09
778.91	3118.65
779.08	1936.35
779.26	1938.40
779.44	2955.01
779.62	3107.18
779.79	1960.52
779.97	1846.45
780.15	3188.69
780.33	3120.08
780.50	2098.76
780.68	2118.01
780.86	3070.52
781.04	3111.07
781.21	2104.08
781.39	2111.46
781.57	3409.05
781.75	3063.35
781.92	1966.05
782.10	2482.14
782.28	3096.53
782.46	3050.04
782.63	2017.86
782.81	2223.07
782.99	2818.00
783.16	3126.22
783.34	1963.18
783.52	2283.49
783.70	2909.34
783.87	3129.71
784.05	1935.13
784.23	2074.18
784.41	3080.76
784.58	3151.82
784.76	2132.75
784.94	2058.82
785.11	2756.16
785.29	3136.87
785.47	2043.87
785.65	2345.95
785.82	3275.93
786.00	3153.67
786.18	2109.20
786.35	2288.40
786.53	3002.73
786.71	2969.35
786.88	1948.03
787.06	1914.85
787.24	3058.85
787.41	2976.31
787.59	2223.48
787.77	2085.65
787.95	3084.45
788.12	3113.53
788.30	2200.54
788.48	2203.82
788.65	3001.50
788.83	2698.40
789.01	2014.18
789.18	2187.03
789.36	3185.21
789.54	2766.81
789.71	1937.58
789.89	1975.27
790.07	3086.08
790.24	2873.10
790.42	1978.34
790.60	2118.21
790.77	3083.01
790.95	2852.41
791.13	1995.75
791.30	2098.96
791.48	2842.79
791.66	2927.57
791.83	2030.36
792.01	2035.68
792.18	2818.00
792.36	2857.74
792.54	1824.13
792.71	2070.50
792.89	2830.09
793.07	2951.33
793.24	2290.65
793.42	1992.88
793.60	3027.92
793.77	2877.81
793.95	1866.11
794.12	2275.91
794.30	3241.73
794.48	3137.49
794.65	1845.63
794.83	2249.08
795.01	3066.42
795.18	3000.68
795.36	2194.81
795.53	2017.66
795.71	2836.23
795.89	3103.29
796.06	2038.55
796.24	2141.97
796.41	3087.11
796.59	2858.96
796.77	2044.90
796.94	1923.66
797.12	2828.04
797.29	8995.50
797.47	2002.50
797.65	2095.89
797.82	2974.67
798.00	3097.96
798.17	2077.05
798.35	2111.05
798.53	3459.22
798.70	3030.38
798.88	2114.94
799.05	1983.87
799.23	3047.38
799.40	3184.80
799.58	1879.42
799.76	1933.90
799.93	2865.31
800.11	3282.28
800.28	2127.84
800.46	1974.24
800.63	2750.83
800.81	3241.32
800.99	1884.54
801.16	2404.11
801.34	3133.39
801.51	2941.91
801.69	1925.09
801.86	1995.54
802.04	2383.84
802.21	2859.58
802.39	1890.89
802.57	2625.29
802.74	2494.02
802.92	2883.54
803.09	1895.19
803.27	1973.83
803.44	2944.16
803.62	2751.86
803.79	1997.38
803.97	2062.92
804.14	3097.14
804.32	3214.49
804.49	2044.08
804.67	1972.40
804.84	2957.68
805.02	3010.31
805.20	2037.73
805.37	1943.52
805.55	3098.99
805.72	3016.45
805.90	2076.23
806.07	2004.96
806.25	2345.33
806.42	3170.26
806.60	1888.23
806.77	1914.65
806.95	3103.70
807.12	3241.52
807.30	2149.96
807.47	2104.70
807.65	2986.35
807.82	3461.89
808.00	2009.88
808.17	2481.73
808.35	2995.36
808.52	2986.96
808.70	2015.20
808.87	1996.36
809.05	2712.94
809.22	3073.80
809.40	1961.75
809.57	2182.73
809.75	3202.82
809.92	3232.10
810.09	2040.80
810.27	1970.56
810.44	2916.51
810.62	3311.77
810.79	2124.15
810.97	2013.56
811.14	3256.88
811.32	3054.75
811.49	2298.03
811.67	2127.02
811.84	3269.38
812.02	2816.78
812.19	2182.11
812.36	2287.58
812.54	3221.66
812.71	3297.84
812.89	2038.55
813.06	2095.89
813.24	3047.58
813.41	2871.66
813.59	2038.96
813.76	1870.21
813.93	2904.02
814.11	3198.52
814.28	2111.66
814.46	2298.23
814.63	2988.81
814.81	3179.06
814.98	2047.76
815.16	1970.56
815.33	2903.81
815.50	3261.39
815.68	1973.22
815.85	1969.53
816.03	3009.49
816.20	3366.66
816.37	1976.29
816.55	2043.87
816.72	3396.56
816.90	3301.74
817.07	1899.90
817.24	2047.15
817.42	2992.70
817.59	3004.78
817.77	2085.65
817.94	1908.30
818.11	3324.47
818.29	3147.32
818.46	2101.42
818.64	1803.24
818.81	2787.49
818.98	2971.40
819.16	2046.33
819.33	2013.97
819.51	3152.64
819.68	3180.09
819.85	2227.78
820.03	2015.82
820.20	3290.27
820.38	3279.00
820.55	1970.15
820.72	2170.85
820.90	2923.48
821.07	3011.54
821.24	2043.26
821.42	1992.26
821.59	3076.25
821.76	3263.03
821.94	1893.96
822.11	2320.35
822.29	3130.53
822.46	2707.41
822.63	1993.08
822.81	2221.02
822.98	2984.10
823.15	3184.80
823.33	1993.90
823.50	1975.27
823.67	3352.73
823.85	3066.63
824.02	1855.25
824.19	1914.44
824.37	2859.37
824.54	3008.67
824.71	2016.84
824.89	2091.59
825.06	3050.45
825.23	3405.98
825.41	1991.65
825.58	1860.37
825.75	2973.86
825.93	2976.31
826.10	2034.04
826.27	2137.46
826.45	3061.92
826.62	3009.49
826.79	2003.53
826.97	1981.20
827.14	2845.45
827.31	3248.28
827.48	1964.00
827.66	2282.05
827.83	2918.77
828.00	3172.92
828.18	2117.39
828.35	2050.84
828.52	2948.87
828.70	3113.94
828.87	1839.28
829.04	2081.15
829.21	2837.46
829.39	3170.87
829.56	1923.86
829.73	1826.38
829.91	2874.94
830.08	2930.85
830.25	1870.61
830.42	1959.29
830.60	3367.07
830.77	3602.17
830.94	1749.99
831.11	1667.25
831.29	2600.31
831.46	3367.27
831.63	1797.30
831.81	1834.57
831.98	3054.95
832.15	3518.21
832.32	1741.39
832.50	1899.08
832.67	3122.13
832.84	3032.63
833.01	1720.09
833.19	1883.93
833.36	3182.13
833.53	3345.15
833.70	1746.92
833.88	2187.03
834.05	3724.03
834.22	3076.05
834.39	1711.49
834.57	1747.94
834.74	2814.32
834.91	2863.06
835.08	1815.73
835.25	1938.61
835.43	3055.16
835.60	3319.96
835.77	1927.34
835.94	1833.75
836.12	3221.25
836.29	3289.45
836.46	1860.99
836.63	1801.60
836.80	3286.58
836.98	3317.71
837.15	1903.18
837.32	1902.15
837.49	2874.53
837.66	3299.69
837.84	1831.91
838.01	2006.19
838.18	3536.43
838.35	3415.19
838.52	1806.51
838.70	1917.31
838.87	2849.75
839.04	3675.49
839.21	1726.85
839.38	1883.93
839.56	3081.78
839.73	3093.25
839.90	1743.44
840.07	1711.08
840.24	3012.77
840.42	3440.79
840.59	1700.22
840.76	2103.26
840.93	2709.46
841.10	3328.15
841.27	1857.10
841.45	2087.70
841.62	3070.93
841.79	3151.00
841.96	1862.63
842.13	1876.76
842.30	2948.67
842.48	3882.95
842.65	1922.84
842.82	1701.45
842.99	2836.64
843.16	3516.77
843.33	1901.33
843.50	1830.47
843.68	2526.58
843.85	3349.66
844.02	1700.22
844.19	2285.53
844.36	3265.49
844.53	3195.04
844.70	1962.57
844.88	2008.65
845.05	2940.88
845.22	3219.00
845.39	1711.69
845.56	2042.44
845.73	3150.80
845.90	3355.39
846.07	1793.82
846.25	1721.93
846.42	2743.05
846.59	3353.96
846.76	1897.85
846.93	1655.37
847.10	3198.11
847.27	3514.52
847.44	1854.03
847.61	1759.82
847.79	2677.10
847.96	3487.90
848.13	1678.31
848.30	1979.36
848.47	2688.37
848.64	2864.08
848.81	1753.47
848.98	1927.14
849.15	3548.52
849.32	3435.47
849.49	1786.65
849.67	1891.91
849.84	2965.87
850.01	3174.15
850.18	1804.06
850.35	1756.34
850.52	2748.78
850.69	3826.02
850.86	1865.09
851.03	2265.87
851.20	3181.72
851.37	3126.43
851.54	1849.73
851.71	1820.85
851.89	3235.18
852.06	3411.92
852.23	1923.25
852.40	1812.04
852.57	2926.55
852.74	3543.19
852.91	1785.42
853.08	1917.10
853.25	3428.09
853.42	3463.93
853.59	1620.97
853.76	1832.11
853.93	3286.17
854.10	3472.33
854.27	1695.31
854.44	1812.66
854.61	3098.17
854.78	3187.25
854.95	1930.42
855.12	1922.02
855.29	3055.98
855.46	3471.51
855.63	1765.55
855.80	1860.58
855.97	3053.52
856.14	3510.22
856.31	1796.07
856.49	2020.73
856.66	3164.52
856.83	3301.94
857.00	1939.84
857.17	1906.86
857.34	2917.33
857.51	3510.01
857.68	1761.05
857.85	1790.13
858.02	3052.09
858.19	3417.86
858.36	1897.65
858.53	1856.69
858.70	3545.85
858.87	3128.27
859.04	1723.98
859.21	1863.45
859.37	3120.29
859.54	3448.57
859.71	2007.62
859.88	2041.21
860.05	3298.25
860.22	3270.40
860.39	1729.92
860.56	1924.27
860.73	3064.99
860.90	3423.38
861.07	1855.25
861.24	1639.19
861.41	2865.31
861.58	3185.00
861.75	1714.76
861.92	1818.60
862.09	3042.46
862.26	3193.40
862.43	1937.79
862.60	2016.23
862.77	3173.94
862.94	3481.75
863.11	1789.31
863.28	1786.03
863.45	3228.21
863.62	2973.65
863.78	1848.50
863.95	1906.45
864.12	3043.08
864.29	3384.27
864.46	1891.09
864.63	1806.72
864.80	3239.27
864.97	3230.88
865.14	2000.25
865.31	1962.98
865.48	2952.35
865.65	3313.20
865.82	1715.38
865.99	2032.40
866.15	3514.72
866.32	3401.88
866.49	1734.02
866.66	1794.23
866.83	3358.26
867.00	3220.43
867.17	1659.06
867.34	1917.72
867.51	3142.20
867.68	3345.56
867.84	2018.48
868.01	2019.09
868.18	3118.85
868.35	3589.07
868.52	1670.73
868.69	1823.72
868.86	3031.81
869.03	3495.47
869.20	1738.11
869.36	1867.95
869.53	3225.35
869.70	3622.65
869.87	1880.04
870.04	1958.06
870.21	2908.93
870.38	3276.75
870.55	1725.00
870.71	1838.67
870.88	3236.61
871.05	3292.72
871.22	1991.04
871.39	1914.03
871.56	3520.66
871.73	3008.26
871.89	1809.38
872.06	1928.98
872.23	2961.36
872.40	3235.18
872.57	2025.44
872.74	1852.80
872.91	3632.28
873.07	3170.26
873.24	1757.57
873.41	1694.49
873.58	2967.51
873.75	3503.87
873.92	1964.62
874.08	1988.99
874.25	2429.10
874.42	3038.37
874.59	1931.64
874.76	1788.29
874.93	2861.63
875.09	3276.55
875.26	1874.10
875.43	2031.79
875.60	2956.24
875.77	3234.97
875.93	1794.02
876.10	1806.31
876.27	2975.70
876.44	3102.67
876.61	1920.18
876.77	1685.27
876.94	2852.21
877.11	3572.27
877.28	1782.14
877.45	1735.65
877.61	3452.06
877.78	3162.47
877.95	1766.37
878.12	1695.10
878.29	3174.35
878.45	3679.38
878.62	1688.14
878.79	2102.44
878.96	3014.81
879.13	3073.39
879.29	1887.61
879.46	1847.06
879.63	3147.52
879.80	3539.50
879.96	1709.44
880.13	1933.08
880.30	2809.20
880.47	3338.80
880.63	1956.63
880.80	2173.51
880.97	2993.31
881.14	3219.41
881.30	2041.62
881.47	1969.94
881.64	3335.32
881.81	3429.32
881.97	1911.78
882.14	2104.90
882.31	3094.89
882.48	3393.48
882.64	1980.80
882.81	2020.94
882.98	3085.47
883.15	3007.03
883.31	1873.07
883.48	2092.20
883.65	2987.99
883.82	3548.72
883.98	1874.30
884.15	1961.95
884.32	3186.64
884.48	3411.51
884.65	1910.35
884.82	2047.56
884.99	3264.67
885.15	3269.79
885.32	1820.03
885.49	2009.47
885.65	3081.78
>>>>>End Processed Spectral Data<<<<<
