SpectraSuite Data File
++++++++++++++++++++++++++++++++++++
Date: Fri Nov 20 23:28:38 GMT 2020
User: Jason
Dark Spectrum Present: No
Reference Spectrum Present: No
Number of Sampled Component Spectra: 1
Spectrometers: USB4C01509
Integration Time (usec): 1000000 (USB4C01509)
Spectra Averaged: 10 (USB4C01509)
Boxcar Smoothing: 0 (USB4C01509)
Correct for Electrical Dark: No (USB4C01509)
Strobe/Lamp Enabled: No (USB4C01509)
Correct for Detector Non-linearity: No (USB4C01509)
Correct for Stray Light: No (USB4C01509)
Number of Pixels in Processed Spectrum: 3648
>>>>>Begin Processed Spectral Data<<<<<
179.08	1214.86
179.29	1214.86
179.50	1214.86
179.72	1194.58
179.93	1204.41
180.15	2508.35
180.36	2078.07
180.58	3502.44
180.79	3331.02
181.00	1990.22
181.22	2016.23
181.43	3354.57
181.65	3619.78
181.86	2224.30
182.08	1798.94
182.29	3617.12
182.50	3233.74
182.72	1934.92
182.93	2363.15
183.15	3339.83
183.36	3563.26
183.57	1828.02
183.79	2142.58
184.00	3204.25
184.22	3437.52
184.43	2004.35
184.65	2221.43
184.86	3221.86
185.07	3250.74
185.29	1770.88
185.50	1955.81
185.72	3436.70
185.93	3422.36
186.14	1994.72
186.36	1940.25
186.57	3027.51
186.79	3916.13
187.00	2061.69
187.21	2184.77
187.43	3554.86
187.64	3317.71
187.86	1952.74
188.07	2375.85
188.28	3127.66
188.50	3720.75
188.71	2277.96
188.93	1942.70
189.14	2955.22
189.35	2852.21
189.57	1976.29
189.78	2011.92
190.00	3095.91
190.21	3308.49
190.42	1934.31
190.64	1816.96
190.85	3313.41
191.07	3506.33
191.28	1908.71
191.49	2171.87
191.71	3246.44
191.92	3344.74
192.14	1817.98
192.35	2265.26
192.56	3283.30
192.78	3469.87
192.99	1951.30
193.20	2268.33
193.42	3421.75
193.63	3474.58
193.85	2244.16
194.06	1941.27
194.27	2937.61
194.49	3700.47
194.70	2149.75
194.91	1938.61
195.13	3046.97
195.34	3151.41
195.56	1968.92
195.77	2083.19
195.98	3440.38
196.20	3280.44
196.41	2023.39
196.62	2107.97
196.84	2944.57
197.05	3321.19
197.27	1887.00
197.48	2086.06
197.69	2835.41
197.91	3020.14
198.12	1974.86
198.33	1688.76
198.55	3888.27
198.76	3513.90
198.97	1886.18
199.19	1977.11
199.40	3011.95
199.61	3479.09
199.83	1945.78
200.04	1892.32
200.26	3088.75
200.47	3613.64
200.68	1957.65
200.90	1936.56
201.11	3449.39
201.32	3538.48
201.54	1752.65
201.75	2054.52
201.96	2854.87
202.18	2946.41
202.39	2224.71
202.60	1953.97
202.82	2742.84
203.03	3197.49
203.24	2123.33
203.46	2237.00
203.67	3181.72
203.88	3481.96
204.10	1999.43
204.31	1892.32
204.52	3449.80
204.74	3439.97
204.95	2034.66
205.16	2111.66
205.38	3430.55
205.59	3677.54
205.80	1951.51
206.02	1862.83
206.23	3858.58
206.44	3194.42
206.66	2021.55
206.87	1947.00
207.08	3117.21
207.30	3771.33
207.51	2132.14
207.72	2231.67
207.94	3290.27
208.15	3493.22
208.36	2091.39
208.58	2089.54
208.79	3303.78
209.00	3541.96
209.22	2041.82
209.43	2028.51
209.64	3164.52
209.86	3105.95
210.07	2111.05
210.28	1873.48
210.50	3158.17
210.71	3686.75
210.92	2026.06
211.13	1962.77
211.35	2759.84
211.56	3312.18
211.77	2120.88
211.99	1905.23
212.20	3018.30
212.41	3043.90
212.63	1860.78
212.84	2065.17
213.05	3741.43
213.27	3521.07
213.48	1872.46
213.69	2030.56
213.90	2408.82
214.12	3253.81
214.33	1876.14
214.54	2169.82
214.76	2912.21
214.97	3557.32
215.18	1823.31
215.40	2583.72
215.61	3408.64
215.82	3399.63
216.03	1847.88
216.25	2026.87
216.46	2858.55
216.67	3668.32
216.89	1861.40
217.10	1878.60
217.31	2842.38
217.52	3274.70
217.74	1986.12
217.95	2047.35
218.16	2914.46
218.38	3602.38
218.59	1850.54
218.80	1995.34
219.01	3126.43
219.23	3598.90
219.44	1846.45
219.65	1993.49
219.87	2538.05
220.08	3352.93
220.29	1899.08
220.50	2082.78
220.72	3441.82
220.93	3206.10
221.14	1933.08
221.35	2067.22
221.57	2951.94
221.78	3658.70
221.99	1903.38
222.21	1833.34
222.42	3036.52
222.63	3525.37
222.84	1913.83
223.06	2149.14
223.27	3280.44
223.48	4167.41
223.69	1791.56
223.91	2106.54
224.12	3141.38
224.33	3633.71
224.54	2191.12
224.76	1996.97
224.97	3201.38
225.18	3386.11
225.39	2073.77
225.61	2023.19
225.82	3198.11
226.03	3730.17
226.24	1830.06
226.46	2274.06
226.67	2544.81
226.88	3320.78
227.09	2119.24
227.31	2075.62
227.52	3266.92
227.73	3463.93
227.94	2012.13
228.16	2057.59
228.37	3002.73
228.58	3540.94
228.79	2060.87
229.01	2020.73
229.22	3058.23
229.43	3354.98
229.64	2221.23
229.86	2074.80
230.07	3262.62
230.28	3798.16
230.49	2154.87
230.71	1964.62
230.92	3286.38
231.13	3810.04
231.34	1988.99
231.55	2080.53
231.77	2805.31
231.98	3566.95
232.19	1864.88
232.40	1934.92
232.62	2790.56
232.83	3125.00
233.04	2117.39
233.25	2113.50
233.46	2924.50
233.68	3532.13
233.89	2273.86
234.10	2132.14
234.31	3151.82
234.53	3740.00
234.74	1909.73
234.95	2091.80
235.16	3012.97
235.37	3489.33
235.59	1696.74
235.80	2163.88
236.01	2775.82
236.22	3331.02
236.44	2070.09
236.65	1861.40
236.86	2827.63
237.07	3428.50
237.28	1975.88
237.50	1985.30
237.71	2657.24
237.92	4421.15
238.13	1840.71
238.34	2136.44
238.56	2593.55
238.77	3665.86
238.98	1899.29
239.19	1920.38
239.40	3096.73
239.62	3937.02
239.83	2189.48
240.04	2065.38
240.25	3080.96
240.46	3257.50
240.68	1850.54
240.89	1883.52
241.10	3321.60
241.31	3307.67
241.52	1802.42
241.73	1835.80
241.95	3196.67
242.16	3782.19
242.37	1867.75
242.58	2055.96
242.79	3092.02
243.01	3297.43
243.22	2082.78
243.43	1740.57
243.64	3107.59
243.85	3535.82
244.06	1914.03
244.28	1898.47
244.49	3307.67
244.70	3808.20
244.91	2013.15
245.12	2002.91
245.34	3078.92
245.55	3327.13
245.76	1875.94
245.97	1881.47
246.18	3172.30
246.39	3246.64
246.61	2043.87
246.82	2007.42
247.03	3085.67
247.24	3232.72
247.45	1922.43
247.66	1964.21
247.88	2656.42
248.09	3339.21
248.30	1861.19
248.51	1798.12
248.72	3114.96
248.93	3230.26
249.15	1914.85
249.36	2333.87
249.57	3285.97
249.78	3537.05
249.99	2022.98
250.20	1899.90
250.41	3033.66
250.63	3302.76
250.84	1777.23
251.05	1995.13
251.26	2986.76
251.47	3102.67
251.68	2144.02
251.89	2195.42
252.11	2474.77
252.32	3145.27
252.53	1850.34
252.74	2011.72
252.95	3348.43
253.16	2727.48
253.37	1894.37
253.59	2006.60
253.80	3276.55
254.01	3347.61
254.22	1890.68
254.43	2311.75
254.64	3089.57
254.85	3439.77
255.07	1887.00
255.28	1887.41
255.49	2853.84
255.70	3528.85
255.91	1840.30
256.12	1865.09
256.33	3222.27
256.54	3616.71
256.76	1886.59
256.97	1872.25
257.18	2903.81
257.39	3296.82
257.60	2173.10
257.81	1936.97
258.02	3284.12
258.23	3524.35
258.45	2198.70
258.66	1955.81
258.87	3709.69
259.08	3609.95
259.29	1919.77
259.50	2005.37
259.71	3358.46
259.92	3740.41
260.13	1844.61
260.35	1979.57
260.56	2993.72
260.77	3618.35
260.98	1927.14
261.19	1965.03
261.40	2889.48
261.61	2694.92
261.82	1818.80
262.03	1951.71
262.25	3199.34
262.46	3579.64
262.67	2081.35
262.88	2026.67
263.09	3275.93
263.30	2959.52
263.51	1752.86
263.72	2114.53
263.93	3468.44
264.14	3742.66
264.36	1910.75
264.57	2165.73
264.78	3611.80
264.99	3425.43
265.20	1904.61
265.41	2214.26
265.62	2860.19
265.83	3647.23
266.04	2116.17
266.25	1936.76
266.46	3503.46
266.67	3309.11
266.89	1733.20
267.10	1850.34
267.31	3280.85
267.52	3213.26
267.73	1981.61
267.94	2026.67
268.15	3049.22
268.36	3582.31
268.57	1829.45
268.78	1916.49
268.99	2854.46
269.20	2898.69
269.41	1912.19
269.63	1838.67
269.84	2912.21
270.05	3576.16
270.26	1973.63
270.47	1977.93
270.68	3263.23
270.89	3659.92
271.10	1901.54
271.31	1972.19
271.52	2949.08
271.73	3282.69
271.94	1930.62
272.15	1981.61
272.36	2853.64
272.57	3638.22
272.78	2095.69
273.00	1932.87
273.21	2911.19
273.42	3464.55
273.63	1920.18
273.84	2013.97
274.05	3003.14
274.26	3282.89
274.47	2124.56
274.68	2339.80
274.89	3155.72
275.10	3187.66
275.31	2213.04
275.52	2224.30
275.73	3130.12
275.94	3271.22
276.15	2238.84
276.36	2077.46
276.57	2896.03
276.78	2951.12
276.99	2098.76
277.20	2026.67
277.41	3120.49
277.63	3087.31
277.84	2075.00
278.05	1968.92
278.26	2955.83
278.47	3025.05
278.68	2241.71
278.89	1904.61
279.10	3049.63
279.31	3123.97
279.52	2088.52
279.73	2097.12
279.94	3107.18
280.15	3556.30
280.36	2158.35
280.57	2278.37
280.78	3139.13
280.99	3140.15
281.20	2269.56
281.41	2017.66
281.62	2910.98
281.83	3130.32
282.04	2024.42
282.25	2226.96
282.46	3157.76
282.67	2729.12
282.88	2069.68
283.09	2067.01
283.30	3224.12
283.51	3220.84
283.72	2247.65
283.93	2195.22
284.14	3166.77
284.35	3023.01
284.56	1967.69
284.77	2098.55
284.98	2806.95
285.19	3208.76
285.40	2200.75
285.61	2173.92
285.82	3003.35
286.03	3247.46
286.24	1990.83
286.45	2048.17
286.66	2796.91
286.87	3326.52
287.08	2185.18
287.29	1999.23
287.50	3290.88
287.71	3229.03
287.92	2052.47
288.13	2060.87
288.34	2853.64
288.55	3069.91
288.76	1992.88
288.97	2183.95
289.18	2937.40
289.39	3051.68
289.60	1899.49
289.81	2177.20
290.02	2983.07
290.23	2988.60
290.44	2161.22
290.65	2137.87
290.86	2690.21
291.07	3177.22
291.28	2326.29
291.49	2022.98
291.70	2995.15
291.91	2611.57
292.12	2036.91
292.33	1961.34
292.54	3415.81
292.75	3296.82
292.96	2162.25
293.17	2221.02
293.38	3130.32
293.58	3294.36
293.79	1922.84
294.00	2232.49
294.21	2866.13
294.42	3487.69
294.63	2051.04
294.84	2075.41
295.05	3090.38
295.26	3479.70
295.47	1903.59
295.68	1944.34
295.89	2961.57
296.10	3304.40
296.31	2062.71
296.52	2295.57
296.73	2815.14
296.94	3132.37
297.15	2122.31
297.36	2298.64
297.57	2706.60
297.78	3134.21
297.98	2162.25
298.19	2445.48
298.40	3149.57
298.61	2976.72
298.82	2099.78
299.03	2424.80
299.24	3139.33
299.45	3596.85
299.66	1972.60
299.87	2051.45
300.08	2875.14
300.29	3096.32
300.50	2017.86
300.71	2309.90
300.92	3086.49
301.13	2984.71
301.33	2082.37
301.54	2245.80
301.75	2873.10
301.96	3179.27
302.17	2062.51
302.38	2003.53
302.59	3054.75
302.80	3317.09
303.01	2391.21
303.22	2372.37
303.43	3017.68
303.64	3197.90
303.85	2171.26
304.05	2098.96
304.26	3083.22
304.47	3079.53
304.68	2045.31
304.89	2179.24
305.10	2707.21
305.31	3073.59
305.52	2081.56
305.73	2057.59
305.94	2749.40
306.15	3128.48
306.35	2070.91
306.56	1967.07
306.77	2913.65
306.98	2973.86
307.19	2098.96
307.40	2155.08
307.61	3101.65
307.82	3188.07
308.03	2252.36
308.24	2353.53
308.45	3205.89
308.65	3435.26
308.86	2079.10
309.07	2240.68
309.28	2942.93
309.49	2880.67
309.70	2150.98
309.91	1985.30
310.12	2906.89
310.33	3058.44
310.53	1918.95
310.74	2045.72
310.95	3291.29
311.16	3161.24
311.37	1949.26
311.58	2320.96
311.79	3149.98
312.00	2997.00
312.20	2060.26
312.41	1969.12
312.62	3063.56
312.83	3284.53
313.04	2055.14
313.25	2381.38
313.46	2882.11
313.67	3303.37
313.87	2105.11
314.08	2234.33
314.29	2969.15
314.50	3290.27
314.71	2127.23
314.92	1999.23
315.13	3297.23
315.34	3181.72
315.54	2068.86
315.75	1971.58
315.96	2832.14
316.17	3042.67
316.38	1888.64
316.59	1995.54
316.80	3103.90
317.00	3281.87
317.21	2298.03
317.42	2082.17
317.63	2776.02
317.84	3008.47
318.05	2276.11
318.26	2089.34
318.46	3375.46
318.67	2594.78
318.88	2127.84
319.09	2160.81
319.30	2742.64
319.51	3130.32
319.71	2056.57
319.92	2034.04
320.13	3030.17
320.34	2738.95
320.55	2082.37
320.76	2103.06
320.97	3008.26
321.17	3198.72
321.38	2035.48
321.59	2094.87
321.80	3225.55
322.01	2994.74
322.22	2192.15
322.42	1952.12
322.63	2592.52
322.84	3464.75
323.05	2265.87
323.26	2228.80
323.47	2445.48
323.67	3080.76
323.88	1997.38
324.09	2176.99
324.30	3068.68
324.51	3129.30
324.71	1943.52
324.92	1990.63
325.13	3072.77
325.34	3016.45
325.55	1956.83
325.76	2167.16
325.96	3142.40
326.17	3346.38
326.38	1849.73
326.59	2172.89
326.80	3115.17
327.00	2957.27
327.21	1958.88
327.42	2338.58
327.63	2854.25
327.84	3023.42
328.04	2188.66
328.25	2025.03
328.46	3024.24
328.67	3095.71
328.88	2132.55
329.08	2015.20
329.29	2678.33
329.50	3020.34
329.71	2143.20
329.92	2051.04
330.12	2771.52
330.33	3092.02
330.54	2038.34
330.75	2480.09
330.96	3054.95
331.16	3091.82
331.37	1873.07
331.58	2194.81
331.79	2939.65
332.00	2992.49
332.20	1812.86
332.41	2116.37
332.62	3022.19
332.83	2912.62
333.03	1953.76
333.24	2575.94
333.45	3250.33
333.66	2863.88
333.87	2150.78
334.07	1978.34
334.28	2831.93
334.49	3325.29
334.70	2151.80
334.90	1852.59
335.11	3109.64
335.32	2882.31
335.53	2017.86
335.74	2165.11
335.94	3276.34
336.15	3291.50
336.36	2229.01
336.57	2192.76
336.77	2781.35
336.98	2540.71
337.19	2128.45
337.40	1968.10
337.60	2893.58
337.81	3017.27
338.02	1857.92
338.23	1834.98
338.43	2746.74
338.64	2987.78
338.85	2147.50
339.06	1993.90
339.26	2970.58
339.47	2894.60
339.68	1935.94
339.89	2163.88
340.09	3062.33
340.30	2934.74
340.51	2049.20
340.72	1962.57
340.92	3049.43
341.13	2999.66
341.34	1938.81
341.55	1971.99
341.75	2951.94
341.96	2873.91
342.17	1979.36
342.38	2083.81
342.58	3151.21
342.79	3223.50
343.00	2162.86
343.20	2017.45
343.41	2670.96
343.62	3101.85
343.83	2293.93
344.03	2083.60
344.24	2616.89
344.45	3358.46
344.66	1974.04
344.86	2287.99
345.07	2953.38
345.28	3223.50
345.48	2343.90
345.69	2181.29
345.90	2961.57
346.11	3268.97
346.31	2360.90
346.52	2250.92
346.73	3026.08
346.93	3110.45
347.14	2041.01
347.35	1932.05
347.56	3272.45
347.76	3398.81
347.97	2147.09
348.18	2289.63
348.38	3235.59
348.59	3428.30
348.80	2128.86
349.01	2115.96
349.21	3027.72
349.42	3009.49
349.63	2283.28
349.83	2308.27
350.04	3247.46
350.25	3334.91
350.45	2212.63
350.66	2093.84
350.87	3050.86
351.08	3196.26
351.28	2208.32
351.49	2130.09
351.70	3012.36
351.90	3680.40
352.11	2126.82
352.32	2637.78
352.52	3258.11
352.73	3299.69
352.94	2283.08
353.14	2239.45
353.35	2599.28
353.56	3374.23
353.76	2212.83
353.97	2271.40
354.18	3378.33
354.39	3237.43
354.59	2087.29
354.80	1990.42
355.01	3029.76
355.21	3394.10
355.42	2056.57
355.63	2157.94
355.83	2722.98
356.04	3011.54
356.25	2357.01
356.45	2407.80
356.66	2904.43
356.87	2958.29
357.07	2052.27
357.28	2068.86
357.49	2901.77
357.69	2605.63
357.90	1798.53
358.11	1841.53
358.31	3425.02
358.52	3155.92
358.72	2027.90
358.93	1897.65
359.14	3258.52
359.34	3240.71
359.55	2006.19
359.76	2051.25
359.96	2653.35
360.17	2551.36
360.38	2153.85
360.58	1981.00
360.79	3264.67
361.00	3219.82
361.20	1921.61
361.41	2076.85
361.62	2777.25
361.82	3193.60
362.03	2071.93
362.23	2048.99
362.44	3009.49
362.65	3343.31
362.85	2173.71
363.06	2243.96
363.27	2829.27
363.47	3211.83
363.68	2089.13
363.89	2003.12
364.09	3044.51
364.30	3284.94
364.50	2070.09
364.71	2194.81
364.92	2694.72
365.12	3154.90
365.33	2064.76
365.54	2137.67
365.74	3004.17
365.95	3031.40
366.15	2122.51
366.36	2235.77
366.57	3332.66
366.77	3197.90
366.98	1995.54
367.18	2119.65
367.39	3040.82
367.60	3215.93
367.80	1924.27
368.01	2142.79
368.22	2892.14
368.42	3353.75
368.63	2089.13
368.83	2144.22
369.04	2652.32
369.25	3414.17
369.45	2027.28
369.66	2274.47
369.86	2975.29
370.07	2947.23
370.28	1893.35
370.48	2301.51
370.69	2743.25
370.89	2897.47
371.10	1910.96
371.31	2198.08
371.51	2921.22
371.72	4896.90
371.92	2164.09
372.13	2241.71
372.33	3182.95
372.54	3058.23
372.75	1983.66
372.95	2121.08
373.16	2817.80
373.36	2852.00
373.57	2084.42
373.78	2203.82
373.98	3336.35
374.19	3128.68
374.39	2000.87
374.60	1984.07
374.80	3238.45
375.01	2988.40
375.22	1907.68
375.42	2168.80
375.63	2859.37
375.83	3308.29
376.04	2221.02
376.24	1867.75
376.45	2877.19
376.66	2739.98
376.86	1928.16
377.07	2035.07
377.27	2649.46
377.48	3180.29
377.68	2080.53
377.89	1972.81
378.09	2905.86
378.30	3061.71
378.51	1945.57
378.71	2112.27
378.92	2617.10
379.12	3086.29
379.33	1939.63
379.53	2377.08
379.74	3069.09
379.94	2909.96
380.15	2071.32
380.36	2071.73
380.56	3086.29
380.77	2938.22
380.97	1986.73
381.18	2264.23
381.38	2837.46
381.59	2879.24
381.79	1984.48
382.00	2157.94
382.20	2850.57
382.41	3067.45
382.61	2162.04
382.82	2000.25
383.03	2658.06
383.23	3336.76
383.44	1948.64
383.64	1982.23
383.85	2960.34
384.05	2993.72
384.26	1902.97
384.46	2103.47
384.67	3005.39
384.87	2858.55
385.08	1934.51
385.28	2070.91
385.49	2994.74
385.69	2853.64
385.90	2586.79
386.10	1891.71
386.31	2893.58
386.51	3223.30
386.72	1939.22
386.92	2162.66
387.13	2893.37
387.33	3168.21
387.54	2237.41
387.74	1889.87
387.95	3027.92
388.15	2848.72
388.36	2239.25
388.56	1920.59
388.77	2667.68
388.97	3129.30
389.18	2183.75
389.38	2086.88
389.59	3122.13
389.79	3142.20
390.00	2057.39
390.20	2589.45
390.41	2834.59
390.61	2951.12
390.82	1941.88
391.02	2005.37
391.23	3009.08
391.43	3344.33
391.64	2022.57
391.84	1938.81
392.05	2726.87
392.25	3118.85
392.46	2026.67
392.66	1924.68
392.87	2931.26
393.07	3066.42
393.28	1909.12
393.48	2033.84
393.69	3322.83
393.89	2997.00
394.10	2237.82
394.30	1998.82
394.51	2963.21
394.71	3035.70
394.92	1961.54
395.12	2115.14
395.32	4153.49
395.53	2880.88
395.73	2115.35
395.94	1968.71
396.14	3028.54
396.35	3146.91
396.55	2298.23
396.76	1983.87
396.96	3141.99
397.17	2916.72
397.37	2171.26
397.58	2239.86
397.78	2706.60
397.98	3142.61
398.19	2037.73
398.39	2281.23
398.60	2450.80
398.80	2969.55
399.01	2401.45
399.21	2137.26
399.42	3081.17
399.62	2940.06
399.83	2062.71
400.03	1936.97
400.23	2633.48
400.44	3127.04
400.64	2095.07
400.85	2185.80
401.05	2914.05
401.26	2718.27
401.46	2177.61
401.66	2344.31
401.87	3032.43
402.07	2634.92
402.28	2013.97
402.48	2221.23
402.69	3095.10
402.89	3020.96
403.09	2105.93
403.30	1899.90
403.50	3153.26
403.71	2855.28
403.91	2099.37
404.12	2540.51
404.32	2645.98
404.52	2745.51
404.73	2268.13
404.93	1934.10
405.14	2232.49
405.34	3204.05
405.54	2013.36
405.75	2195.42
405.95	3241.93
406.16	3084.86
406.36	2230.24
406.57	2040.19
406.77	3035.29
406.97	3094.48
407.18	2047.76
407.38	1940.66
407.59	3025.46
407.79	2970.99
407.99	2113.71
408.20	2159.79
408.40	3191.35
408.61	2541.12
408.81	2126.20
409.01	2079.10
409.22	3358.46
409.42	3138.51
409.63	2067.22
409.83	2091.18
410.03	2681.00
410.24	3159.81
410.44	2133.98
410.64	2330.38
410.85	2884.56
411.05	3118.65
411.26	2127.43
411.46	2020.32
411.66	3151.21
411.87	3118.65
412.07	1961.13
412.28	2168.18
412.48	3157.35
412.68	2764.55
412.89	2103.67
413.09	2238.23
413.29	3119.88
413.50	3375.26
413.70	1976.70
413.91	2197.88
414.11	2998.64
414.31	3021.57
414.52	1987.35
414.72	1994.31
414.92	3128.68
415.13	3087.52
415.33	1969.53
415.53	2110.43
415.74	3260.98
415.94	3132.57
416.14	2076.64
416.35	1860.99
416.55	3059.67
416.76	3063.97
416.96	2095.48
417.16	2046.13
417.37	2977.75
417.57	3006.83
417.77	1907.48
417.98	2145.86
418.18	2826.20
418.38	3190.94
418.59	2012.74
418.79	1979.98
418.99	2772.74
419.20	3186.84
419.40	2033.63
419.60	2211.60
419.81	2966.48
420.01	3037.34
420.21	2307.04
420.42	2207.10
420.62	2912.21
420.82	2935.35
421.03	1971.78
421.23	2161.84
421.43	2700.25
421.64	3014.00
421.84	1850.75
422.04	2030.77
422.25	2908.53
422.45	2814.32
422.65	1884.13
422.86	2252.77
423.06	2504.87
423.26	2943.96
423.47	1983.66
423.67	2128.86
423.87	2925.93
424.08	2676.08
424.28	2034.04
424.48	2154.26
424.68	2957.88
424.89	3004.57
425.09	2138.90
425.29	2203.61
425.50	2759.64
425.70	2837.46
425.90	2168.39
426.11	1987.76
426.31	3222.07
426.51	3099.81
426.71	2143.40
426.92	2163.27
427.12	3128.89
427.32	2976.31
427.53	2145.86
427.73	2304.99
427.93	3210.81
428.14	3329.79
428.34	1995.34
428.54	2203.20
428.74	2988.19
428.95	3287.40
429.15	1999.43
429.35	2084.01
429.56	2597.44
429.76	2896.03
429.96	2142.99
430.16	2097.32
430.37	2974.06
430.57	3033.45
430.77	2166.75
430.97	2150.78
431.18	2909.14
431.38	3145.48
431.58	2320.96
431.79	2078.69
431.99	3058.85
432.19	3192.78
432.39	2627.34
432.60	2234.33
432.80	3067.86
433.00	3400.24
433.20	2084.83
433.41	2163.06
433.61	3125.20
433.81	2946.00
434.01	2207.30
434.22	2183.75
434.42	3441.82
434.62	3004.78
434.82	2190.51
435.03	2065.99
435.23	3045.33
435.43	3451.65
435.63	2062.10
435.84	2102.85
436.04	2948.67
436.24	3348.63
436.44	2232.08
436.65	2331.82
436.85	3008.26
437.05	2901.97
437.25	2074.59
437.46	1990.63
437.66	3007.24
437.86	3260.37
438.06	2177.81
438.27	2191.53
438.47	3081.78
438.67	3078.51
438.87	2112.48
439.08	2217.34
439.28	3002.32
439.48	3296.82
439.68	2316.25
439.88	2339.60
440.09	3231.49
440.29	3053.32
440.49	2021.75
440.69	2374.01
440.90	3086.49
441.10	3113.94
441.30	2160.61
441.50	2200.75
441.70	3166.98
441.91	3223.50
442.11	2442.82
442.31	2317.69
442.51	2722.16
442.71	3274.29
442.92	2342.26
443.12	2261.16
443.32	3384.88
443.52	3343.51
443.73	2354.34
443.93	2499.96
444.13	3227.19
444.33	3498.14
444.53	2411.89
444.74	2396.12
444.94	3038.78
445.14	3469.87
445.34	2405.54
445.54	2474.36
445.74	3051.88
445.95	3709.69
446.15	2489.72
446.35	2597.64
446.55	3513.70
446.75	3489.53
446.96	2339.60
447.16	2268.94
447.36	2968.74
447.56	3578.42
447.76	2340.21
447.97	2281.44
448.17	3271.02
448.37	3268.76
448.57	2590.07
448.77	2812.68
448.97	3288.22
449.18	3427.69
449.38	2301.10
449.58	2489.51
449.78	3108.00
449.98	3371.16
450.18	2323.63
450.39	2383.63
450.59	3232.72
450.79	3183.16
450.99	2789.95
451.19	2225.32
451.39	3327.95
451.60	3358.87
451.80	2238.63
452.00	2485.21
452.20	3192.37
452.40	3337.17
452.60	2349.22
452.80	2372.78
453.01	3185.21
453.21	3351.30
453.41	2331.20
453.61	2322.60
453.81	2772.34
454.01	3285.35
454.22	2430.12
454.42	2277.14
454.62	3361.74
454.82	3384.27
455.02	2308.27
455.22	2277.96
455.42	2947.64
455.62	3341.47
455.83	2278.16
456.03	2550.34
456.23	3038.98
456.43	3126.63
456.63	2210.37
456.83	2232.70
457.03	3492.61
457.24	3208.76
457.44	2090.16
457.64	2330.59
457.84	3061.30
458.04	3445.09
458.24	2253.58
458.44	2312.98
458.64	2840.94
458.84	3222.07
459.05	2431.35
459.25	2319.12
459.45	2978.77
459.65	3256.27
459.85	2572.45
460.05	2420.29
460.25	3049.22
460.45	3087.11
460.65	2331.41
460.86	2210.17
461.06	3074.62
461.26	3136.26
461.46	2186.21
461.66	2246.83
461.86	3356.83
462.06	3485.85
462.26	2154.46
462.46	2268.33
462.66	3105.74
462.87	2835.21
463.07	1993.70
463.27	2153.03
463.47	3081.99
463.67	3189.30
463.87	2081.97
464.07	4136.49
464.27	2946.82
464.47	3161.04
464.67	2249.08
464.87	2242.53
465.08	3140.15
465.28	2905.25
465.48	2171.87
465.68	2206.07
465.88	3367.68
466.08	3183.36
466.28	2065.79
466.48	2164.70
466.68	3033.66
466.88	3232.92
467.08	2188.87
467.28	2204.84
467.48	2959.11
467.68	3118.85
467.89	2237.20
468.09	2193.17
468.29	2847.50
468.49	3305.22
468.69	2140.33
468.89	2153.03
469.09	2983.69
469.29	3211.22
469.49	1888.84
469.69	2207.51
469.89	3180.09
470.09	3188.28
470.29	2120.88
470.49	2695.74
470.69	3148.75
470.89	3180.70
471.09	2058.00
471.29	2255.43
471.49	3019.12
471.70	3507.76
471.90	2244.16
472.10	2138.69
472.30	2836.23
472.50	2851.59
472.70	2081.76
472.90	2434.22
473.10	3337.98
473.30	3125.20
473.50	2062.30
473.70	2054.73
473.90	3396.15
474.10	3252.17
474.30	1895.40
474.50	2026.26
474.70	3439.15
474.90	2949.28
475.10	2096.71
475.30	2087.70
475.50	2774.18
475.70	3097.35
475.90	2251.33
476.10	2247.24
476.30	2874.73
476.50	3155.72
476.70	2081.97
476.90	2224.50
477.10	2982.66
477.30	3045.94
477.50	2017.45
477.70	2293.52
477.90	3130.93
478.10	3360.31
478.30	2270.79
478.50	2094.05
478.70	2842.79
478.90	3246.85
479.10	2042.03
479.30	2174.12
479.50	3114.14
479.70	3422.97
479.90	2135.21
480.10	2336.32
480.30	3067.65
480.50	3213.67
480.70	2094.05
480.90	2174.53
481.10	2763.94
481.30	3108.61
481.50	2063.74
481.70	2279.59
481.90	3018.30
482.10	3208.76
482.30	2128.66
482.50	8838.42
482.70	2715.40
482.90	2895.62
483.10	2300.89
483.30	2180.06
483.50	3318.32
483.70	3316.89
483.90	2178.83
484.10	2123.33
484.30	3223.30
484.50	3106.56
484.70	2383.02
484.90	2200.54
485.10	3029.36
485.30	2743.87
485.50	2251.13
485.69	2215.08
485.89	3339.21
486.09	3326.11
486.29	2491.76
486.49	2221.23
486.69	3131.34
486.89	3292.31
487.09	2215.49
487.29	2210.99
487.49	2914.87
487.69	3303.37
487.89	2197.27
488.09	2174.12
488.29	2748.17
488.49	3107.79
488.69	2374.62
488.89	2333.46
489.09	2990.44
489.29	3123.77
489.48	2058.62
489.68	2006.60
489.88	3084.45
490.08	3462.91
490.28	2319.94
490.48	2220.82
490.68	3232.31
490.88	3474.17
491.08	2151.80
491.28	2584.33
491.48	3117.83
491.68	3123.56
491.88	2250.10
492.08	2220.61
492.27	3322.62
492.47	3342.28
492.67	2273.65
492.87	2262.60
493.07	3364.81
493.27	3246.44
493.47	2248.26
493.67	2310.52
493.87	3473.97
494.07	3247.26
494.27	2192.15
494.46	2375.03
494.66	3308.70
494.86	3200.57
495.06	2123.74
495.26	2127.84
495.46	2961.57
495.66	2763.73
495.86	2107.56
496.06	2487.05
496.26	2919.58
496.45	3220.23
496.65	2134.19
496.85	2099.99
497.05	3079.74
497.25	3384.06
497.45	2154.46
497.65	2173.92
497.85	3260.98
498.05	3079.12
498.24	2455.92
498.44	2076.03
498.64	2791.38
498.84	3372.59
499.04	2042.85
499.24	2636.76
499.44	3218.79
499.64	3271.63
499.83	2172.49
500.03	2329.56
500.23	3350.27
500.43	3567.15
500.63	2071.32
500.83	2406.98
501.03	3219.82
501.22	3222.07
501.42	2444.05
501.62	2238.43
501.82	2939.45
502.02	3156.74
502.22	2362.13
502.42	2360.69
502.62	2801.62
502.81	3037.75
503.01	2118.83
503.21	2266.90
503.41	3413.96
503.61	3435.26
503.81	2245.80
504.00	2384.65
504.20	3074.00
504.40	3291.70
504.60	2533.54
504.80	2492.17
505.00	3339.21
505.20	3312.59
505.39	2128.66
505.59	2485.41
505.79	3125.00
505.99	3443.05
506.19	2542.35
506.39	2432.37
506.58	3310.34
506.78	3268.97
506.98	2519.21
507.18	2542.76
507.38	3155.31
507.57	3123.97
507.77	2051.86
507.97	2333.87
508.17	3305.63
508.37	3183.57
508.57	2188.46
508.76	2391.41
508.96	3016.04
509.16	3565.92
509.36	2150.57
509.56	2345.13
509.75	3356.42
509.95	2748.78
510.15	2270.58
510.35	2411.48
510.55	3022.60
510.75	3148.55
510.94	2411.28
511.14	2319.94
511.34	3193.19
511.54	2807.97
511.74	2215.29
511.93	2706.80
512.13	3480.93
512.33	3286.99
512.53	2134.39
512.72	2311.75
512.92	3243.78
513.12	3461.68
513.32	2607.47
513.52	2192.56
513.71	3227.60
513.91	3396.35
514.11	2645.16
514.31	2355.78
514.51	3261.19
514.70	3328.77
514.90	2689.80
515.10	2406.57
515.30	3028.13
515.49	3396.35
515.69	2422.75
515.89	2502.62
516.09	3194.83
516.29	3631.66
516.48	2734.65
516.68	2496.47
516.88	3315.25
517.08	3485.23
517.27	2294.13
517.47	2390.80
517.67	3396.15
517.87	3333.27
518.06	2423.57
518.26	2338.78
518.46	3016.66
518.66	3466.60
518.85	2478.66
519.05	2387.52
519.25	3402.90
519.45	3011.54
519.64	2381.58
519.84	2536.61
520.04	3128.68
520.24	3381.40
520.43	2440.77
520.63	2438.52
520.83	2897.06
521.03	3321.60
521.22	2483.57
521.42	2387.93
521.62	3327.33
521.82	3440.79
522.01	2406.16
522.21	2600.92
522.41	3031.61
522.61	3378.53
522.80	2317.07
523.00	2562.42
523.20	3238.45
523.39	3584.97
523.59	2493.40
523.79	2430.32
523.99	3171.07
524.18	3507.15
524.38	2452.44
524.58	2579.83
524.77	3320.58
524.97	3191.14
525.17	2367.04
525.37	2477.63
525.56	3587.63
525.76	3474.79
525.96	2536.41
526.15	2353.94
526.35	3319.96
526.55	3464.34
526.75	2478.86
526.94	2571.22
527.14	2964.84
527.34	3547.70
527.53	2568.97
527.73	2371.75
527.93	3282.07
528.12	3327.13
528.32	2357.62
528.52	2586.79
528.72	3416.83
528.91	3378.12
529.11	2522.89
529.31	2460.43
529.50	3670.98
529.70	3188.07
529.90	2492.58
530.09	2359.26
530.29	3493.43
530.49	3316.89
530.68	2368.48
530.88	2735.68
531.08	3542.37
531.27	3375.05
531.47	2439.13
531.67	2505.89
531.86	3471.10
532.06	3163.29
532.26	2431.14
532.45	2948.87
532.65	2994.95
532.85	2990.03
533.04	2356.80
533.24	2517.57
533.44	3230.67
533.63	3339.21
533.83	2512.24
534.03	2911.39
534.22	3296.82
534.42	3287.81
534.62	2540.30
534.81	2453.06
535.01	2967.51
535.21	3639.45
535.40	2373.19
535.60	2925.93
535.80	2966.07
535.99	3446.32
536.19	2584.74
536.38	2457.15
536.58	3468.03
536.78	3329.59
536.97	2574.71
537.17	2659.49
537.37	3264.46
537.56	3433.21
537.76	2420.70
537.96	2468.83
538.15	3676.72
538.35	3721.16
538.54	2381.17
538.74	2616.28
538.94	3452.47
539.13	3453.28
539.33	2543.58
539.53	2490.53
539.72	3244.19
539.92	3537.46
540.11	2339.60
540.31	2534.57
540.51	3402.90
540.70	3681.22
540.90	2498.32
541.10	2416.19
541.29	3622.86
541.49	3307.06
541.68	2500.16
541.88	2609.73
542.08	3597.87
542.27	3404.54
542.47	2424.18
542.66	2464.94
542.86	3107.18
543.06	3642.72
543.25	2615.46
543.45	2932.49
543.64	3502.64
543.84	3493.83
544.04	2332.43
544.23	2764.55
544.43	3601.56
544.62	3667.71
544.82	2346.77
545.01	2557.71
545.21	3639.24
545.41	3467.83
545.60	2378.31
545.80	2606.25
545.99	3565.72
546.19	3598.08
546.39	2747.15
546.58	2597.23
546.78	3404.13
546.97	3483.80
547.17	2511.01
547.36	2568.36
547.56	3549.13
547.76	3546.06
547.95	2576.14
548.15	2545.22
548.34	3363.38
548.54	3446.32
548.73	2573.68
548.93	2568.15
549.12	3553.64
549.32	3126.43
549.52	2791.38
549.71	2535.79
549.91	3454.92
550.10	3296.82
550.30	2562.21
550.49	2359.46
550.69	3249.92
550.88	3488.71
551.08	2526.37
551.28	2492.58
551.47	3738.16
551.67	3287.81
551.86	2443.43
552.06	2826.81
552.25	3309.11
552.45	3725.05
552.64	2661.13
552.84	2850.98
553.03	3390.62
553.23	3868.00
553.42	2382.61
553.62	2633.28
553.81	3526.81
554.01	3581.90
554.21	2477.22
554.40	2461.86
554.60	3383.24
554.79	3261.19
554.99	2654.99
555.18	2720.11
555.38	3296.21
555.57	7124.06
555.77	2591.29
555.96	2643.52
556.16	3596.03
556.35	3652.35
556.55	2289.22
556.74	2446.50
556.94	3329.18
557.13	3550.36
557.33	2682.63
557.52	2554.23
557.72	3552.41
557.91	3709.08
558.11	2843.40
558.30	2661.13
558.50	3382.43
558.69	3550.56
558.89	2554.84
559.08	2413.12
559.28	3135.85
559.47	3641.49
559.67	2446.30
559.86	2673.21
560.06	3106.56
560.25	3519.43
560.45	2975.49
560.64	2613.21
560.84	3483.39
561.03	3662.38
561.23	2371.96
561.42	2266.49
561.62	3422.16
561.81	3672.83
562.00	2580.03
562.20	2943.96
562.39	3356.83
562.59	3524.55
562.78	2670.76
562.98	2522.28
563.17	3611.80
563.37	3322.21
563.56	2398.99
563.76	2451.42
563.95	3392.67
564.15	3481.34
564.34	2399.81
564.54	2613.62
564.73	3611.39
564.92	3774.82
565.12	2567.33
565.31	2635.12
565.51	3709.08
565.70	3659.11
565.90	2543.78
566.09	2817.80
566.29	3561.83
566.48	3820.08
566.67	2743.87
566.87	2530.67
567.06	3562.03
567.26	3291.90
567.45	2346.56
567.65	2413.53
567.84	3702.32
568.03	3759.87
568.23	2407.80
568.42	2841.76
568.62	3340.03
568.81	3580.87
569.01	2581.06
569.20	2304.99
569.39	3638.83
569.59	3681.43
569.78	2454.90
569.98	2561.80
570.17	3585.99
570.37	3402.29
570.56	2702.91
570.75	2476.40
570.95	3725.26
571.14	3685.93
571.34	2338.78
571.53	2284.71
571.72	3462.71
571.92	3562.03
572.11	2697.38
572.31	2899.31
572.50	3361.74
572.69	3036.73
572.89	2643.72
573.08	2549.52
573.28	3601.97
573.47	3696.58
573.66	2402.06
573.86	2445.27
574.05	2972.63
574.25	3683.27
574.44	2371.96
574.63	2443.64
574.83	3356.21
575.02	3513.29
575.22	2418.04
575.41	2530.47
575.60	3620.40
575.80	3534.59
575.99	2509.58
576.18	2353.12
576.38	3236.81
576.57	3871.68
576.77	2331.41
576.96	2329.15
577.15	3425.23
577.35	3801.44
577.54	2881.49
577.73	2378.10
577.93	3497.32
578.12	3591.32
578.31	2437.90
578.51	2433.60
578.70	2969.96
578.90	3900.56
579.09	2320.96
579.28	2649.87
579.48	3116.39
579.67	3710.71
579.86	2401.24
580.06	2433.81
580.25	3652.96
580.44	3864.11
580.64	2255.43
580.83	2274.47
581.02	3656.65
581.22	3584.35
581.41	2546.03
581.60	2426.02
581.80	3392.26
581.99	3784.03
582.18	2557.09
582.38	2704.96
582.57	2917.33
582.76	3891.76
582.96	2510.20
583.15	2494.43
583.34	3354.78
583.54	3322.21
583.73	2329.56
583.92	2368.27
584.12	3087.93
584.31	3499.36
584.50	2407.18
584.70	2743.25
584.89	3291.50
585.08	3728.94
585.28	2542.76
585.47	2425.00
585.66	3229.65
585.86	3444.68
586.05	2705.57
586.24	2499.14
586.43	3576.57
586.63	3577.80
586.82	2468.62
587.01	2482.34
587.21	3186.84
587.40	3884.59
587.59	2521.66
587.79	2483.16
587.98	3639.85
588.17	3511.04
588.36	2522.07
588.56	3033.25
588.75	3564.69
588.94	3557.53
589.14	2770.08
589.33	2310.52
589.52	3582.72
589.71	3750.24
589.91	2481.52
590.10	2454.29
590.29	3779.94
590.49	3729.35
590.68	2476.61
590.87	2502.21
591.06	3570.84
591.26	3383.04
591.45	2477.63
591.64	2515.72
591.84	3352.52
592.03	3898.51
592.22	2382.40
592.41	2443.02
592.61	3170.67
592.80	3326.93
592.99	2346.36
593.18	2503.23
593.38	3189.10
593.57	3304.60
593.76	2520.23
593.95	2332.43
594.15	3376.08
594.34	3767.65
594.53	2553.00
594.72	2487.05
594.92	3358.05
595.11	3567.77
595.30	2372.78
595.49	2339.19
595.69	3087.31
595.88	3475.20
596.07	2564.06
596.26	2517.77
596.46	3366.45
596.65	3251.36
596.84	2398.58
597.03	2468.42
597.22	3363.99
597.42	4083.04
597.61	2206.69
597.80	2328.75
597.99	3687.57
598.19	3344.74
598.38	2319.73
598.57	2587.20
598.76	3345.97
598.95	3443.25
599.15	2547.67
599.34	2306.42
599.53	3251.36
599.72	3000.48
599.92	2222.87
600.11	2194.60
600.30	3493.63
600.49	3512.88
600.68	2279.39
600.88	2340.62
601.07	3225.76
601.26	3480.32
601.45	2251.74
601.64	2452.24
601.84	3569.00
602.03	3596.23
602.22	2327.72
602.41	2321.58
602.60	3569.40
602.80	3481.14
602.99	2767.22
603.18	2502.62
603.37	3175.99
603.56	3029.76
603.76	2248.26
603.95	2256.86
604.14	3283.71
604.33	3598.08
604.52	2361.92
604.71	2196.45
604.91	2746.74
605.10	3603.20
605.29	2295.98
605.48	2149.55
605.67	3273.68
605.86	3415.60
606.06	2429.91
606.25	2155.28
606.44	3108.61
606.63	2935.15
606.82	2396.33
607.01	2299.25
607.21	3465.98
607.40	3309.93
607.59	2417.63
607.78	2616.89
607.97	3445.30
608.16	3523.33
608.36	2448.55
608.55	2251.74
608.74	3239.89
608.93	3362.56
609.12	2452.85
609.31	2359.87
609.50	3078.10
609.70	3610.77
609.89	2320.55
610.08	2456.74
610.27	3144.86
610.46	3450.01
610.65	2573.68
610.84	2408.21
611.03	3807.58
611.23	3420.52
611.42	2415.58
611.61	2452.85
611.80	3534.79
611.99	3479.70
612.18	2457.97
612.37	2205.05
612.56	3225.96
612.76	3266.92
612.95	2371.55
613.14	2291.88
613.33	3441.20
613.52	3441.41
613.71	2223.07
613.90	2524.33
614.09	3004.98
614.29	3195.45
614.48	2405.13
614.67	2175.56
614.86	3231.49
615.05	3788.13
615.24	2317.89
615.43	2429.30
615.62	3765.19
615.81	3263.64
616.00	2409.03
616.20	2453.47
616.39	3422.77
616.58	3129.30
616.77	2295.57
616.96	2309.90
617.15	3553.84
617.34	3253.40
617.53	2393.05
617.72	2299.46
617.91	3027.92
618.10	3391.44
618.29	2224.30
618.49	2220.20
618.68	3400.86
618.87	3358.87
619.06	2301.10
619.25	2265.87
619.44	3028.74
619.63	3055.77
619.82	2418.24
620.01	2178.01
620.20	3203.02
620.39	3548.72
620.58	2230.65
620.77	2401.24
620.96	3509.40
621.16	3371.57
621.35	2328.75
621.54	2426.43
621.73	3713.58
621.92	3529.47
622.11	2480.29
622.30	2306.01
622.49	3320.78
622.68	3353.34
622.87	2406.77
623.06	2329.77
623.25	3546.47
623.44	3664.02
623.63	2167.57
623.82	2374.82
624.01	3295.80
624.20	3508.58
624.39	2600.92
624.58	2469.24
624.77	3207.53
624.96	3377.31
625.15	2162.25
625.34	2293.93
625.53	3334.30
625.72	3592.55
625.92	2328.13
626.11	2400.22
626.30	3562.44
626.49	3429.12
626.68	2336.73
626.87	2443.64
627.06	3608.93
627.25	3467.83
627.44	2423.16
627.63	2459.82
627.82	2710.69
628.01	3275.32
628.20	2195.63
628.39	2364.18
628.58	3209.17
628.77	3773.38
628.96	2154.87
629.15	2284.92
629.34	3212.65
629.53	3411.51
629.72	2654.58
629.91	2716.43
630.10	3607.50
630.29	3359.90
630.48	2213.85
630.67	2371.75
630.86	3289.45
631.05	3349.45
631.24	2095.48
631.43	2260.34
631.62	3024.03
631.81	3629.00
632.00	2282.46
632.19	2523.71
632.37	3716.04
632.56	3254.63
632.75	2295.98
632.94	2643.31
633.13	3567.77
633.32	3186.43
633.51	2174.53
633.70	2207.51
633.89	3324.06
634.08	3416.63
634.27	2149.55
634.46	2495.45
634.65	3231.29
634.84	3549.13
635.03	2351.68
635.22	2438.52
635.41	3325.70
635.60	3524.55
635.79	2181.50
635.98	2296.39
636.17	3083.01
636.36	3214.08
636.55	2146.07
636.74	2266.28
636.92	3594.39
637.11	3384.27
637.30	2400.01
637.49	2324.85
637.68	3102.26
637.87	3472.95
638.06	2431.35
638.25	2255.22
638.44	3044.72
638.63	3263.23
638.82	2136.03
639.01	2192.15
639.20	3066.22
639.39	3467.01
639.58	2246.83
639.76	2196.45
639.95	3341.06
640.14	3189.51
640.33	2140.74
640.52	2185.18
640.71	3137.69
640.90	3337.17
641.09	2236.38
641.28	2222.46
641.47	3385.70
641.66	3382.43
641.84	2137.46
642.03	2106.95
642.22	3066.83
642.41	2972.63
642.60	2188.87
642.79	2139.51
642.98	3197.70
643.17	3198.72
643.36	2161.02
643.55	2215.08
643.73	2960.54
643.92	3527.01
644.11	2164.09
644.30	2481.93
644.49	3462.71
644.68	3584.35
644.87	2229.83
645.06	2565.29
645.25	2888.86
645.43	3390.62
645.62	2338.99
645.81	2201.98
646.00	3415.19
646.19	3262.41
646.38	2396.53
646.57	2187.85
646.76	3101.24
646.94	3585.58
647.13	2157.54
647.32	2268.53
647.51	3351.71
647.70	3001.91
647.89	1967.69
648.08	2172.49
648.26	3082.40
648.45	3495.27
648.64	2203.00
648.83	2118.01
649.02	2880.88
649.21	3103.29
649.40	2238.23
649.58	2183.34
649.77	2980.00
649.96	3445.50
650.15	1980.59
650.34	2022.37
650.53	3100.83
650.71	3016.25
650.90	2205.46
651.09	2464.32
651.28	3267.74
651.47	2977.75
651.66	2439.75
651.84	2254.40
652.03	3458.00
652.22	3367.07
652.41	2231.67
652.60	2244.98
652.79	3049.43
652.97	3291.90
653.16	2073.36
653.35	2245.60
653.54	3072.98
653.73	3681.22
653.91	2089.13
654.10	2170.64
654.29	2984.50
654.48	3440.79
654.67	2296.59
654.86	2211.81
655.04	3011.95
655.23	3164.73
655.42	2171.26
655.61	2457.36
655.80	3101.65
655.98	3347.61
656.17	2222.05
656.36	2206.48
656.55	3754.95
656.73	3162.68
656.92	2108.18
657.11	2236.38
657.30	3530.49
657.49	3624.90
657.67	2183.95
657.86	2371.55
658.05	3037.96
658.24	2965.25
658.43	2023.19
658.61	2140.13
658.80	3105.95
658.99	3174.15
659.18	2045.51
659.36	1996.77
659.55	2646.18
659.74	3151.41
659.93	2117.19
660.12	2111.87
660.30	3498.95
660.49	3250.54
660.68	2126.00
660.87	2474.15
661.05	3088.54
661.24	3111.07
661.43	2140.13
661.62	2483.16
661.80	2828.24
661.99	3128.07
662.18	2180.27
662.37	2402.68
662.55	3237.63
662.74	3651.53
662.93	2194.40
663.12	2081.35
663.30	3380.38
663.49	3050.04
663.68	2016.43
663.87	2344.92
664.05	2997.00
664.24	2918.15
664.43	1938.61
664.61	2186.41
664.80	3254.02
664.99	2949.48
665.18	2139.10
665.36	2325.06
665.55	3110.25
665.74	3026.28
665.93	2044.69
666.11	2149.34
666.30	3158.17
666.49	3149.57
666.67	1945.78
666.86	2356.60
667.05	3529.67
667.24	3148.75
667.42	2203.61
667.61	2498.93
667.80	2980.00
667.98	3070.11
668.17	2109.61
668.36	2126.41
668.54	3075.84
668.73	3312.38
668.92	2516.75
669.11	2149.55
669.29	3255.86
669.48	3445.50
669.67	2195.22
669.85	2285.94
670.04	2992.90
670.23	3216.74
670.41	2212.01
670.60	2217.34
670.79	3331.64
670.97	3253.61
671.16	2243.14
671.35	1961.34
671.53	3141.17
671.72	2938.43
671.91	2105.31
672.10	2025.44
672.28	3298.25
672.47	3800.42
672.66	2301.71
672.84	2335.50
673.03	3295.80
673.22	3423.18
673.40	2189.07
673.59	2335.09
673.78	3094.89
673.96	3383.45
674.15	2113.50
674.33	2297.41
674.52	2801.01
674.71	3143.02
674.89	2052.68
675.08	2100.19
675.27	2635.33
675.45	3185.82
675.64	2204.02
675.83	2138.69
676.01	3101.24
676.20	2895.01
676.39	2044.49
676.57	2130.50
676.76	3086.70
676.94	3287.60
677.13	1987.35
677.32	2206.28
677.50	3375.46
677.69	3327.13
677.88	2078.48
678.06	2585.56
678.25	3259.75
678.44	3338.19
678.62	2027.28
678.81	2358.65
678.99	3042.05
679.18	3464.55
679.37	2077.66
679.55	2247.65
679.74	3243.57
679.92	3090.79
680.11	2150.16
680.30	2393.87
680.48	2893.78
680.67	3141.58
680.85	2273.65
681.04	2379.94
681.23	2839.92
681.41	3787.10
681.60	2298.84
681.78	2228.39
681.97	2838.48
682.16	3212.85
682.34	2306.01
682.53	2388.55
682.71	3218.59
682.90	3096.32
683.09	2100.19
683.27	2256.66
683.46	3479.29
683.64	3418.47
683.83	2297.00
684.02	2183.95
684.20	3247.05
684.39	3252.17
684.57	2769.06
684.76	2541.12
684.94	3399.22
685.13	3200.98
685.32	2435.65
685.50	2526.58
685.69	3520.66
685.87	3697.61
686.06	2455.31
686.24	2639.01
686.43	3288.42
686.61	3801.85
686.80	2597.85
686.99	2737.32
687.17	3653.37
687.36	3848.54
687.54	2774.79
687.73	2838.08
687.91	4240.73
688.10	4112.73
688.28	3130.12
688.47	3205.07
688.66	4177.24
688.84	4521.10
689.03	3516.57
689.21	3598.49
689.40	4703.98
689.58	5004.62
689.77	4578.23
689.95	4464.98
690.14	5623.31
690.32	6098.65
690.51	4826.04
690.69	5052.13
690.88	6225.42
691.06	6747.03
691.25	5683.52
691.43	6079.60
691.62	6692.35
691.80	7129.18
691.99	6350.34
692.18	6387.00
692.36	7798.26
692.55	7624.38
692.73	6600.60
692.92	6776.52
693.10	8058.76
693.29	8004.49
693.47	7219.09
693.66	7164.20
693.84	7670.67
694.03	7902.09
694.21	7278.28
694.40	7139.22
694.58	7876.28
694.77	8038.89
694.95	7130.21
695.14	7245.51
695.32	8427.39
695.50	8345.68
695.69	7271.11
695.87	7563.35
696.06	8333.80
696.24	8408.55
696.43	7566.83
696.61	7397.26
696.80	8293.04
696.98	8459.75
697.17	7336.03
697.35	7843.93
697.54	8494.16
697.72	8543.51
697.91	7510.31
698.09	7536.52
698.28	8065.72
698.46	8269.29
698.65	7319.85
698.83	7438.02
699.01	7933.01
699.20	8799.51
699.38	7213.15
699.57	7334.19
699.75	7730.26
699.94	7930.96
700.12	7022.08
700.31	7058.53
700.49	7996.70
700.67	8136.78
700.86	7041.53
701.04	6796.80
701.23	7764.67
701.41	7774.09
701.60	6662.25
701.78	6637.47
701.97	7476.11
702.15	7745.83
702.33	6609.82
702.52	6556.78
702.70	7408.94
702.89	7589.98
703.07	6670.03
703.26	6350.55
703.44	6798.23
703.62	7385.38
703.81	6281.53
703.99	6246.51
704.18	6954.49
704.36	7123.65
704.54	6192.65
704.73	6219.68
704.91	6873.60
705.10	7277.46
705.28	6156.19
705.46	6233.20
705.65	7322.51
705.83	7389.69
706.02	6272.31
706.20	6184.66
706.38	7038.46
706.57	6961.66
706.75	6255.32
706.94	6359.35
707.12	6576.64
707.30	7174.44
707.49	6003.42
707.67	5921.70
707.86	7052.18
708.04	7067.34
708.22	6125.27
708.41	6022.87
708.59	6770.38
708.78	7142.50
708.96	6025.94
709.14	5608.98
709.33	6730.24
709.51	6708.12
709.69	5557.16
709.88	5328.41
710.06	6067.52
710.24	6082.67
710.43	4866.79
710.61	4778.53
710.80	5576.62
710.98	5355.85
711.16	4467.85
711.35	4270.01
711.53	5203.89
711.71	4528.26
711.90	3760.28
712.08	3480.52
712.26	4437.95
712.45	4326.13
712.63	2997.82
712.81	3040.82
713.00	3692.90
713.18	4025.08
713.36	2841.35
713.55	2746.74
713.73	3586.81
713.91	3383.65
714.10	2482.55
714.28	2388.14
714.46	3519.84
714.65	3692.49
714.83	2351.48
715.01	2201.98
715.20	3383.04
715.38	3180.91
715.56	2240.89
715.75	2390.59
715.93	3325.90
716.11	3032.02
716.30	2153.85
716.48	2077.66
716.66	3053.11
716.85	3275.52
717.03	1957.04
717.21	2331.41
717.40	2860.60
717.58	3034.68
717.76	2330.38
717.94	2079.10
718.13	2868.79
718.31	3102.67
718.49	2121.29
718.68	1975.27
718.86	3357.44
719.04	2945.39
719.23	2339.80
719.41	2170.85
719.59	2616.28
719.77	3234.56
719.96	2006.60
720.14	1959.91
720.32	3105.74
720.51	3131.14
720.69	1958.27
720.87	2272.63
721.05	2930.23
721.24	3505.10
721.42	2025.44
721.60	2339.19
721.78	3220.84
721.97	3450.42
722.15	1950.90
722.33	2366.84
722.51	2928.39
722.70	3304.40
722.88	1973.63
723.06	2177.61
723.25	2879.65
723.43	2989.62
723.61	2116.78
723.79	1861.40
723.98	2729.74
724.16	2904.22
724.34	2101.42
724.52	2175.76
724.71	2867.77
724.89	3075.23
725.07	2256.86
725.25	2025.03
725.43	2861.83
725.62	2882.93
725.80	2107.16
725.98	1965.03
726.16	2985.73
726.35	3102.67
726.53	2376.67
726.71	2035.07
726.89	2853.84
727.08	3191.14
727.26	2126.00
727.44	2066.61
727.62	2789.74
727.80	3338.19
727.99	1989.60
728.17	2103.88
728.35	2673.83
728.53	3122.33
728.71	2369.30
728.90	2026.06
729.08	3027.31
729.26	3086.08
729.44	1997.38
729.63	2354.75
729.81	2819.03
729.99	3115.37
730.17	1850.75
730.35	2153.85
730.53	3133.60
730.72	3064.99
730.90	2048.17
731.08	2189.07
731.26	3182.75
731.44	3227.60
731.63	2078.28
731.81	1956.63
731.99	3207.53
732.17	3329.38
732.35	2069.88
732.54	2240.48
732.72	2719.70
732.90	2982.46
733.08	2199.31
733.26	2223.48
733.44	3201.38
733.63	2952.76
733.81	2088.72
733.99	1995.13
734.17	3368.50
734.35	3185.21
734.53	2158.76
734.72	2131.53
734.90	3065.81
735.08	3099.81
735.26	1924.89
735.44	2339.19
735.62	3307.47
735.80	3315.87
735.99	1972.19
736.17	2121.90
736.35	3357.03
736.53	2913.65
736.71	2158.76
736.89	1946.80
737.07	2873.30
737.26	3140.15
737.44	1814.71
737.62	1874.92
737.80	2922.25
737.98	2719.70
738.16	2184.77
738.34	1996.56
738.53	2747.76
738.71	3036.52
738.89	2071.11
739.07	2124.15
739.25	3156.94
739.43	2943.14
739.61	1824.33
739.79	2210.99
739.97	3204.87
740.16	3257.29
740.34	2133.37
740.52	2366.22
740.70	3134.83
740.88	3273.88
741.06	2012.13
741.24	1977.52
741.42	3157.56
741.60	3017.89
741.79	1994.93
741.97	1892.12
742.15	3016.25
742.33	3368.09
742.51	1985.71
742.69	2053.70
742.87	2860.81
743.05	3116.39
743.23	1981.41
743.41	2267.10
743.59	3320.58
743.77	2973.45
743.96	1946.39
744.14	2265.67
744.32	2734.86
744.50	3227.80
744.68	1928.37
744.86	2036.91
745.04	2996.38
745.22	3043.08
745.40	1972.60
745.58	1920.59
745.76	3235.18
745.94	3185.82
746.12	2041.82
746.30	1992.67
746.49	2679.56
746.67	3395.74
746.85	2173.92
747.03	2071.93
747.21	2779.09
747.39	3025.05
747.57	2135.62
747.75	2173.51
747.93	3110.86
748.11	2966.07
748.29	2132.14
748.47	2401.04
748.65	2953.58
748.83	2941.09
749.01	2142.18
749.19	1925.09
749.37	3261.60
749.55	2941.91
749.73	2033.63
749.91	2109.00
750.09	3268.56
750.27	3060.07
750.45	1922.84
750.63	2090.16
750.81	2602.97
750.99	3245.83
751.17	1997.38
751.35	1935.33
751.53	2922.25
751.71	3104.52
751.89	2189.07
752.07	2048.17
752.25	2260.75
752.44	3102.06
752.62	2101.22
752.80	1963.18
752.98	2609.32
753.16	3116.80
753.34	2334.89
753.51	2074.39
753.69	3203.64
753.87	2982.66
754.05	1899.49
754.23	2041.01
754.41	2755.95
754.59	3055.98
754.77	2371.14
754.95	2071.93
755.13	2936.17
755.31	2940.06
755.49	2182.32
755.67	2044.69
755.85	3010.10
756.03	3229.03
756.21	1793.61
756.39	2101.22
756.57	3133.39
756.75	3346.79
756.93	1990.01
757.11	1991.85
757.29	3110.25
757.47	3236.81
757.65	1923.04
757.83	2227.99
758.01	2809.61
758.19	2964.64
758.37	2140.74
758.55	2076.64
758.73	2788.72
758.91	3155.51
759.09	2181.91
759.27	2446.91
759.44	3303.37
759.62	2838.08
759.80	2206.07
759.98	1951.30
760.16	3028.54
760.34	3320.78
760.52	1794.84
760.70	2172.89
760.88	3221.66
761.06	3084.86
761.24	2371.14
761.42	2015.00
761.60	3117.62
761.78	3178.04
761.95	1939.02
762.13	2218.97
762.31	3220.23
762.49	2968.94
762.67	2141.15
762.85	2251.13
763.03	3131.75
763.21	3118.03
763.39	2020.73
763.57	1995.95
763.75	2924.50
763.92	3194.01
764.10	1980.59
764.28	2106.34
764.46	3339.01
764.64	2918.97
764.82	2306.22
765.00	1896.83
765.18	3193.40
765.36	3051.27
765.54	1933.90
765.71	2149.75
765.89	2762.91
766.07	2986.96
766.25	2033.84
766.43	2148.11
766.61	2958.09
766.79	3363.38
766.97	2323.22
767.14	2045.10
767.32	3043.49
767.50	3026.28
767.68	2080.53
767.86	2170.64
768.04	2896.03
768.22	3348.84
768.40	1944.75
768.57	2205.66
768.75	3406.18
768.93	3183.98
769.11	2191.94
769.29	1933.90
769.47	2864.49
769.65	3407.00
769.82	2434.63
770.00	2066.81
770.18	2849.34
770.36	3019.73
770.54	1966.87
770.72	2035.27
770.89	3197.49
771.07	2983.69
771.25	2124.36
771.43	1993.90
771.61	2713.15
771.79	3043.90
771.96	2055.34
772.14	2155.08
772.32	2844.01
772.50	3186.43
772.68	2172.89
772.86	1977.52
773.03	3135.03
773.21	3159.40
773.39	1948.03
773.57	1823.31
773.75	2829.27
773.92	2981.84
774.10	1889.25
774.28	1862.22
774.46	3304.81
774.64	3222.68
774.82	2191.33
774.99	2037.32
775.17	2557.09
775.35	2948.67
775.53	2075.21
775.71	2056.57
775.88	2922.25
776.06	3125.20
776.24	2011.92
776.42	1967.07
776.59	2885.18
776.77	2915.69
776.95	2118.42
777.13	2001.48
777.31	3068.47
777.48	3095.10
777.66	2216.31
777.84	1850.95
778.02	2929.41
778.19	3348.84
778.37	2216.31
778.55	2085.04
778.73	2689.19
778.91	3121.51
779.08	1954.17
779.26	1950.08
779.44	2973.04
779.62	3093.25
779.79	1981.20
779.97	1850.54
780.15	3198.93
780.33	3102.67
780.50	2082.17
780.68	2133.37
780.86	3062.33
781.04	3121.72
781.21	2128.04
781.39	2088.93
781.57	3433.01
781.75	3078.30
781.92	1965.44
782.10	2485.82
782.28	3110.05
782.46	3043.49
782.63	2021.35
782.81	2249.49
782.99	2818.41
783.16	3143.22
783.34	1949.26
783.52	2297.41
783.70	2902.79
783.87	3145.48
784.05	1934.51
784.23	2115.55
784.41	3094.07
784.58	3154.49
784.76	2122.72
784.94	2063.74
785.11	2776.23
785.29	3176.19
785.47	2021.14
785.65	2355.16
785.82	3314.84
786.00	3147.52
786.18	2145.25
786.35	2283.69
786.53	2997.00
786.71	2945.80
786.88	1971.17
787.06	1939.22
787.24	3043.08
787.41	2967.92
787.59	2213.04
787.77	2103.26
787.95	3108.61
788.12	3126.84
788.30	2234.33
788.48	2217.95
788.65	3035.70
788.83	2707.82
789.01	1993.29
789.18	2164.50
789.36	3200.16
789.54	2747.15
789.71	1930.42
789.89	1990.22
790.07	3096.73
790.24	2903.41
790.42	1993.08
790.60	2095.89
790.77	3072.16
790.95	2850.77
791.13	2007.21
791.30	2114.32
791.48	2845.86
791.66	2926.75
791.83	2035.68
792.01	2053.50
792.18	2784.01
792.36	2864.49
792.54	1831.70
792.71	2084.22
792.89	2857.53
793.07	2932.90
793.24	2258.09
793.42	1965.44
793.60	3079.53
793.77	2855.89
793.95	1887.61
794.12	2274.47
794.30	3256.27
794.48	3129.50
794.65	1846.65
794.83	2233.72
795.01	3080.15
795.18	2995.36
795.36	2184.57
795.53	2010.49
795.71	2843.20
795.89	3100.01
796.06	2024.83
796.24	2129.07
796.41	3085.67
796.59	2865.72
796.77	2075.41
796.94	1957.04
797.12	2791.79
797.29	9075.57
797.47	2002.71
797.65	2088.31
797.82	2977.95
798.00	3095.10
798.17	2078.89
798.35	2110.43
798.53	3436.90
798.70	3059.26
798.88	2103.88
799.05	1967.69
799.23	3029.76
799.40	3212.24
799.58	1906.45
799.76	1925.09
799.93	2922.04
800.11	3261.60
800.28	2140.74
800.46	1980.80
800.63	2741.82
800.81	3249.72
800.99	1863.45
801.16	2398.17
801.34	3132.57
801.51	2928.60
801.69	1935.94
801.86	2000.25
802.04	2364.18
802.21	2866.34
802.39	1895.60
802.57	2597.85
802.74	2512.04
802.92	2862.65
803.09	1906.45
803.27	1970.35
803.44	2925.52
803.62	2748.78
803.79	2005.78
803.97	2078.07
804.14	3084.86
804.32	3220.23
804.49	2055.96
804.67	1968.51
804.84	2964.23
805.02	2997.20
805.20	2044.69
805.37	1932.67
805.55	3096.32
805.72	3007.85
805.90	2083.40
806.07	2029.13
806.25	2347.38
806.42	3180.50
806.60	1886.79
806.77	1942.29
806.95	3068.47
807.12	3286.58
807.30	2147.09
807.47	2122.72
807.65	3016.25
807.82	3471.51
808.00	2008.03
808.17	2454.49
808.35	2989.83
808.52	2990.65
808.70	2028.51
808.87	1974.04
809.05	2716.84
809.22	3084.24
809.40	1969.53
809.57	2170.03
809.75	3204.66
809.92	3215.11
810.09	2020.73
810.27	2000.46
810.44	2894.80
810.62	3300.71
810.79	2128.86
810.97	2014.79
811.14	3251.15
811.32	3046.97
811.49	2282.26
811.67	2132.55
811.84	3286.17
812.02	2840.94
812.19	2164.70
812.36	2303.15
812.54	3211.22
812.71	3289.86
812.89	2011.92
813.06	2093.02
813.24	3052.29
813.41	2865.72
813.59	2060.26
813.76	1893.14
813.93	2864.70
814.11	3209.58
814.28	2121.49
814.46	2318.10
814.63	2965.05
814.81	3180.29
814.98	2043.46
815.16	1974.86
815.33	2912.01
815.50	3243.57
815.68	1957.45
815.85	1992.67
816.03	3047.99
816.20	3366.86
816.37	2010.29
816.55	2057.18
816.72	3400.24
816.90	3272.24
817.07	1896.21
817.24	2043.05
817.42	3011.13
817.59	2991.47
817.77	2064.76
817.94	1874.10
818.11	3343.72
818.29	3156.94
818.46	2077.66
818.64	1763.10
818.81	2805.10
818.98	2963.62
819.16	2025.85
819.33	1985.51
819.51	3149.98
819.68	3167.39
819.85	2216.93
820.03	2022.16
820.20	3291.70
820.38	3268.15
820.55	1947.82
820.72	2139.31
820.90	2940.06
821.07	3042.67
821.24	2052.47
821.42	2002.91
821.59	3091.82
821.76	3284.53
821.94	1871.23
822.11	2338.78
822.29	3096.73
822.46	2696.36
822.63	2028.31
822.81	2242.12
822.98	2971.60
823.15	3182.34
823.33	2000.05
823.50	1982.02
823.67	3376.90
823.85	3066.01
824.02	1866.72
824.19	1896.21
824.37	2828.45
824.54	3010.72
824.71	1993.08
824.89	2088.93
825.06	3068.68
825.23	3406.59
825.41	1966.66
825.58	1857.30
825.75	2916.31
825.93	2955.63
826.10	2025.44
826.27	2140.95
826.45	3070.52
826.62	3014.00
826.79	1990.63
826.97	1991.04
827.14	2868.59
827.31	3238.04
827.48	1966.46
827.66	2260.55
827.83	2926.75
828.00	3178.65
828.18	2115.14
828.35	2050.22
828.52	2909.34
828.70	3093.66
828.87	1829.04
829.04	2079.92
829.21	2831.73
829.39	3130.32
829.56	1941.06
829.73	1837.85
829.91	2863.27
830.08	2913.44
830.25	1865.70
830.42	1933.69
830.60	3359.08
830.77	3619.17
830.94	1788.90
831.11	1650.05
831.29	2594.98
831.46	3380.79
831.63	1837.23
831.81	1849.52
831.98	3069.91
832.15	3533.16
832.32	1744.87
832.50	1907.68
832.67	3158.17
832.84	3014.00
833.01	1730.94
833.19	1880.04
833.36	3196.47
833.53	3353.75
833.70	1735.45
833.88	2204.43
834.05	3707.44
834.22	3088.13
834.39	1699.81
834.57	1720.50
834.74	2836.23
834.91	2865.93
835.08	1817.57
835.25	1953.35
835.43	3081.17
835.60	3301.33
835.77	1932.05
835.94	1839.08
836.12	3228.42
836.29	3307.67
836.46	1881.88
836.63	1780.30
836.80	3297.84
836.98	3352.73
837.15	1923.25
837.32	1890.89
837.49	2834.80
837.66	3305.63
837.84	1846.86
838.01	2001.28
838.18	3478.47
838.35	3402.70
838.52	1783.99
838.70	1904.41
838.87	2849.34
839.04	3646.41
839.21	1696.74
839.38	1877.78
839.56	3121.72
839.73	3111.89
839.90	1763.10
840.07	1687.32
840.24	3031.40
840.42	3433.62
840.59	1725.62
840.76	2116.58
840.93	2712.13
841.10	3324.47
841.27	1897.85
841.45	2112.89
841.62	3030.38
841.79	3171.69
841.96	1854.64
842.13	1923.66
842.30	2927.57
842.48	3867.18
842.65	1922.43
842.82	1706.57
842.99	2881.08
843.16	3519.43
843.33	1925.09
843.50	1791.36
843.68	2560.17
843.85	3343.72
844.02	1721.32
844.19	2308.68
844.36	3236.81
844.53	3222.68
844.70	1970.35
844.88	1997.18
845.05	2959.72
845.22	3214.70
845.39	1739.75
845.56	2021.96
845.73	3154.08
845.90	3350.68
846.07	1781.12
846.25	1752.45
846.42	2750.63
846.59	3349.04
846.76	1879.63
846.93	1689.78
847.10	3199.13
847.27	3501.00
847.44	1855.46
847.61	1751.01
847.79	2676.90
847.96	3525.17
848.13	1683.02
848.30	1935.54
848.47	2685.09
848.64	2875.96
848.81	1742.62
848.98	1930.62
849.15	3584.35
849.32	3427.28
849.49	1783.58
849.67	1863.24
849.84	2967.71
850.01	3174.56
850.18	1820.23
850.35	1751.63
850.52	2776.23
850.69	3841.37
850.86	1842.97
851.03	2233.72
851.20	3182.13
851.37	3114.76
851.54	1849.52
851.71	1797.71
851.89	3247.67
852.06	3420.31
852.23	1909.94
852.40	1802.21
852.57	2906.68
852.74	3535.00
852.91	1783.99
853.08	1923.86
853.25	3462.30
853.42	3451.85
853.59	1641.24
853.76	1814.30
853.93	3263.85
854.10	3508.99
854.27	1692.44
854.44	1837.03
854.61	3080.55
854.78	3198.11
854.95	1928.16
855.12	1903.18
855.29	3090.79
855.46	3474.99
855.63	1767.60
855.80	1827.40
855.97	3074.41
856.14	3481.34
856.31	1808.36
856.49	2028.72
856.66	3190.94
856.83	3267.33
857.00	1934.72
857.17	1885.16
857.34	2924.29
857.51	3545.65
857.68	1744.05
857.85	1800.98
858.02	3049.02
858.19	3404.13
858.36	1876.76
858.53	1862.01
858.70	3553.23
858.87	3083.42
859.04	1744.05
859.21	1838.87
859.37	3168.41
859.54	3437.93
859.71	2027.90
859.88	2042.23
860.05	3281.26
860.22	3283.92
860.39	1740.98
860.56	1934.10
860.73	3080.76
860.90	3425.43
861.07	1854.85
861.24	1633.66
861.41	2840.74
861.58	3172.92
861.75	1715.58
861.92	1830.68
862.09	3023.83
862.26	3213.26
862.43	1935.74
862.60	2053.09
862.77	3165.55
862.94	3469.67
863.11	1792.59
863.28	1790.74
863.45	3252.58
863.62	2954.60
863.78	1880.44
863.95	1889.66
864.12	3086.90
864.29	3399.83
864.46	1901.33
864.63	1805.08
864.80	3281.87
864.97	3235.18
865.14	2016.02
865.31	1958.88
865.48	2938.02
865.65	3290.68
865.82	1694.28
865.99	1980.18
866.15	3516.36
866.32	3378.33
866.49	1723.16
866.66	1783.58
866.83	3331.84
867.00	3210.19
867.17	1668.28
867.34	1945.78
867.51	3124.79
867.68	3390.41
867.84	2001.07
868.01	2016.23
868.18	3121.10
868.35	3547.08
868.52	1702.07
868.69	1815.11
868.86	3009.29
869.03	3502.23
869.20	1722.55
869.36	1875.12
869.53	3233.33
869.70	3628.59
869.87	1865.70
870.04	1946.80
870.21	2930.64
870.38	3281.26
870.55	1710.67
870.71	1866.52
870.88	3261.19
871.05	3291.70
871.22	1994.11
871.39	1873.69
871.56	3510.22
871.73	2987.37
871.89	1799.55
872.06	1904.41
872.23	2973.04
872.40	3212.85
872.57	1986.73
872.74	1876.76
872.91	3651.32
873.07	3154.49
873.24	1771.49
873.41	1706.16
873.58	2939.24
873.75	3507.35
873.92	1941.68
874.08	2017.86
874.25	2436.47
874.42	3043.69
874.59	1912.39
874.76	1779.89
874.93	2856.51
875.09	3281.05
875.26	1889.05
875.43	1998.41
875.60	2979.38
875.77	3205.28
875.93	1787.47
876.10	1801.80
876.27	3012.56
876.44	3088.54
876.61	1932.46
876.77	1694.69
876.94	2876.37
877.11	3579.44
877.28	1788.49
877.45	1724.18
877.61	3460.86
877.78	3157.15
877.95	1766.37
878.12	1721.52
878.29	3176.40
878.45	3687.78
878.62	1668.48
878.79	2095.07
878.96	3032.84
879.13	3090.79
879.29	1927.55
879.46	1832.11
879.63	3161.24
879.80	3520.05
879.96	1707.80
880.13	1957.65
880.30	2865.93
880.47	3336.14
880.63	1975.06
880.80	2178.01
880.97	3010.72
881.14	3208.55
881.30	2060.26
881.47	1961.54
881.64	3347.20
881.81	3403.72
881.97	1872.46
882.14	2100.60
882.31	3108.20
882.48	3405.77
882.64	1980.59
882.81	2015.00
882.98	3114.76
883.15	2965.05
883.31	1861.81
883.48	2098.14
883.65	3020.34
883.82	3526.81
883.98	1880.04
884.15	1973.83
884.32	3149.37
884.48	3399.83
884.65	1904.82
884.82	2027.90
884.99	3295.18
885.15	3254.43
885.32	1787.26
885.49	2024.83
885.65	3071.34
>>>>>End Processed Spectral Data<<<<<
